* Measurement data measured by REW V5.20.13
* Source: C:\Users\kurin\Desktop\Targets and Curves\Resolve\Img\Files\DT990 32 Ohm_SPL.txt
* Format: Comma/Tab/Space delimited data
* Dated: Aug 14, 2023 6:52:29 PM
* REW Settings:
*  C-weighting compensation: Off
*  Target level: 75.0 dB
* Note: ; Measurement imported from C:\Users\kurin\Desktop\Targets and Curves\Resolve\Img\Files\DT990 32 Ohm_SPL.txt Format: Comma/Tab/Space delimited data 623 values loaded, 5 Hz to 39,792 Hz log spaced 
* Measurement: DT990 32 Ohm_SPL
* Smoothing: 1/48 octave
* Frequency Step: 1/96 octave
* Start Frequency: 5.000 Hz
*
* Freq(Hz) SPL(dB) Phase(degrees)
5.000000 74.247 65.0810
5.036232 74.268 65.0665
5.072727 74.291 65.0510
5.109486 74.318 65.0331
5.146511 74.349 65.0130
5.183805 74.387 64.9897
5.221369 74.428 64.9650
5.259205 74.470 64.9403
5.297316 74.514 64.9150
5.335702 74.561 64.8887
5.374367 74.609 64.8620
5.413311 74.656 64.8355
5.452538 74.704 64.8090
5.492050 74.751 64.7825
5.531847 74.799 64.7560
5.571934 74.846 64.7296
5.612310 74.894 64.7030
5.652979 74.942 64.6756
5.693943 74.990 64.6480
5.735204 75.038 64.6205
5.776763 75.085 64.5930
5.818624 75.132 64.5656
5.860788 75.180 64.5380
5.903258 75.227 64.5101
5.946035 75.275 64.4820
5.989123 75.322 64.4536
6.032523 75.370 64.4250
6.076237 75.418 64.3961
6.120268 75.466 64.3670
6.164618 75.514 64.3381
6.209289 75.561 64.3090
6.254284 75.608 64.2791
6.299605 75.656 64.2490
6.345255 75.703 64.2191
6.391235 75.751 64.1890
6.437549 75.799 64.1586
6.484198 75.847 64.1280
6.531185 75.895 64.0971
6.578513 75.942 64.0660
6.626183 75.989 64.0351
6.674199 76.037 64.0040
6.722563 76.084 63.9721
6.771278 76.132 63.9400
6.820345 76.179 63.9081
6.869768 76.227 63.8760
6.919549 76.275 63.8436
6.969691 76.323 63.8110
7.020196 76.371 63.7781
7.071068 76.418 63.7450
7.122308 76.465 63.7116
7.173919 76.513 63.6780
7.225904 76.560 63.6441
7.278266 76.608 63.6100
7.331007 76.655 63.5756
7.384131 76.703 63.5410
7.437639 76.751 63.5061
7.491535 76.799 63.4710
7.545822 76.847 63.4356
7.600502 76.894 63.4000
7.655579 76.941 63.3641
7.711054 76.989 63.3280
7.766932 77.036 63.2916
7.823214 77.084 63.2550
7.879904 77.131 63.2181
7.937005 77.179 63.1810
7.994520 77.227 63.1436
8.052452 77.275 63.1060
8.110803 77.323 63.0682
8.169578 77.370 63.0300
8.228777 77.417 62.9911
8.288406 77.465 62.9520
8.348468 77.512 62.9131
8.408964 77.560 62.8740
8.469899 77.607 62.8342
8.531276 77.655 62.7940
8.593097 77.703 62.7536
8.655366 77.751 62.7130
8.718086 77.799 62.6727
8.781260 77.846 62.6320
8.844893 77.893 62.5902
8.908987 77.941 62.5480
8.973545 77.988 62.5061
9.038571 78.036 62.4640
9.104069 78.084 62.4211
9.170040 78.132 62.3780
9.236490 78.180 62.3351
9.303422 78.227 62.2920
9.370838 78.274 62.2483
9.438744 78.322 62.2040
9.507140 78.369 62.1591
9.576033 78.417 62.1140
9.645425 78.464 62.0692
9.715320 78.512 62.0240
9.785721 78.560 61.9777
9.856632 78.608 61.9310
9.928058 78.656 61.8846
10.000000 78.703 61.8380
10.072464 78.750 61.7907
10.145453 78.798 61.7431
10.218971 78.845 61.6952
10.293022 78.893 61.6470
10.367610 78.940 61.5982
10.442738 78.988 61.5490
10.518411 79.036 61.4996
10.594631 79.084 61.4500
10.671404 79.132 61.4003
10.748734 79.179 61.3500
10.826623 79.226 61.2987
10.905077 79.274 61.2470
10.984100 79.321 61.1957
11.063695 79.369 61.1440
11.143867 79.416 61.0918
11.224621 79.464 61.0390
11.305959 79.512 60.9857
11.387886 79.560 60.9320
11.470407 79.608 60.8782
11.553527 79.655 60.8240
11.637249 79.702 60.7693
11.721577 79.750 60.7141
11.806517 79.797 60.6583
11.892071 79.845 60.6021
11.978246 79.892 60.5452
12.065045 79.940 60.4880
12.152473 79.988 60.4307
12.240536 80.036 60.3730
12.329235 80.084 60.3147
12.418578 80.131 60.2561
12.508568 80.178 60.1973
12.599211 80.226 60.1380
12.690510 80.273 60.0778
12.782471 80.321 60.0171
12.875097 80.368 59.9562
12.968395 80.416 59.8950
13.062370 80.464 59.8333
13.157025 80.512 59.7710
13.252366 80.560 59.7078
13.348398 80.607 59.6440
13.445127 80.654 59.5803
13.542556 80.702 59.5161
13.640691 80.749 59.4513
13.739536 80.797 59.3860
13.839099 80.845 59.3203
13.939383 80.893 59.2541
14.040393 80.941 59.1873
14.142136 80.988 59.1200
14.244616 81.035 59.0523
14.347837 81.083 58.9840
14.451808 81.130 58.9153
14.556532 81.178 58.8460
14.662014 81.225 58.7758
14.768262 81.273 58.7051
14.875278 81.321 58.6343
14.983070 81.369 58.5631
15.091644 81.417 58.4909
15.201005 81.464 58.4181
15.311157 81.511 58.3443
15.422109 81.559 58.2701
15.533863 81.606 58.1958
15.646428 81.654 58.1210
15.759809 81.701 58.0454
15.874010 81.749 57.9691
15.989040 81.797 57.8918
16.104904 81.845 57.8141
16.221605 81.893 57.7364
16.339155 81.940 57.6581
16.457554 81.987 57.5784
16.576813 82.035 57.4981
16.696936 82.082 57.4178
16.817928 82.130 57.3371
16.939798 82.177 57.2555
17.062551 82.225 57.1731
17.186193 82.273 57.0899
17.310732 82.321 57.0061
17.436172 82.369 56.9218
17.562521 82.416 56.8371
17.689787 82.463 56.7519
17.817974 82.511 56.6661
17.947090 82.558 56.5794
18.077143 82.606 56.4921
18.208138 82.653 56.4043
18.340080 82.701 56.3161
18.472980 82.749 56.2273
18.606844 82.797 56.1381
18.741676 82.845 56.0488
18.877487 82.892 55.9591
19.014280 82.939 55.8685
19.152065 82.987 55.7781
19.290850 83.034 55.6890
19.430639 83.082 55.6001
19.571442 83.130 55.5106
19.713264 83.179 55.4211
19.856115 83.227 55.3322
20.000000 83.276 55.2421
20.144928 83.326 55.1497
20.290907 83.377 55.0541
20.437943 83.427 54.9527
20.586044 83.477 54.8491
20.735220 83.527 54.7472
20.885475 83.577 54.6431
21.036821 83.629 54.5346
21.189262 83.681 54.4212
21.342808 83.732 54.3003
21.497467 83.783 54.1752
21.653246 83.832 54.0489
21.810154 83.882 53.9192
21.968201 83.933 53.7844
22.127390 83.984 53.6452
22.287735 84.033 53.5008
22.449242 84.081 53.3541
22.611917 84.128 53.2075
22.775772 84.174 53.0612
22.940815 84.220 52.9158
23.107054 84.265 52.7722
23.274498 84.310 52.6316
23.443153 84.355 52.4932
23.613033 84.400 52.3569
23.784142 84.445 52.2221
23.956491 84.490 52.0881
24.130091 84.535 51.9552
24.304947 84.580 51.8234
24.481071 84.626 51.6922
24.658470 84.672 51.5610
24.837156 84.719 51.4292
25.017136 84.766 51.2957
25.198421 84.813 51.1611
25.381020 84.860 51.0264
25.564941 84.908 50.8891
25.750195 84.958 50.7473
25.936790 85.008 50.6002
26.124741 85.057 50.4461
26.314051 85.107 50.2862
26.504732 85.156 50.1223
26.696796 85.206 49.9512
26.890253 85.256 49.7702
27.085112 85.306 49.5802
27.281382 85.353 49.3792
27.479073 85.399 49.1733
27.678198 85.442 48.9678
27.878765 85.484 48.7633
28.080786 85.525 48.5617
28.284271 85.565 48.3643
28.489231 85.603 48.1726
28.695675 85.641 47.9872
28.903616 85.679 47.8102
29.113064 85.717 47.6392
29.324028 85.756 47.4745
29.536524 85.797 47.3112
29.750557 85.840 47.1446
29.966141 85.883 46.9742
30.183289 85.926 46.7979
30.402010 85.969 46.6152
30.622314 86.012 46.4239
30.844217 86.055 46.2272
31.067726 86.095 46.0273
31.292856 86.134 45.8263
31.519617 86.173 45.6274
31.748020 86.212 45.4292
31.978081 86.250 45.2310
32.209808 86.287 45.0343
32.443211 86.323 44.8407
32.678310 86.360 44.6492
32.915108 86.398 44.4608
33.153625 86.436 44.2712
33.393871 86.474 44.0755
33.635857 86.512 43.8773
33.879597 86.548 43.6782
34.125103 86.583 43.4803
34.372387 86.618 43.2868
34.621464 86.654 43.0953
34.872345 86.690 42.9040
35.125042 86.725 42.7132
35.379574 86.760 42.5235
35.635948 86.795 42.3332
35.894180 86.831 42.1416
36.154285 86.868 41.9473
36.416275 86.904 41.7481
36.680161 86.940 41.5463
36.945961 86.974 41.3430
37.213688 87.007 41.1403
37.483353 87.039 40.9400
37.754974 87.071 40.7443
38.028561 87.102 40.5557
38.304131 87.132 40.3752
38.581699 87.163 40.2072
38.861279 87.195 40.0442
39.142883 87.232 39.8816
39.426529 87.270 39.7152
39.712231 87.309 39.5385
40.000000 87.348 39.3543
40.289856 87.387 39.1640
40.581814 87.427 38.9653
40.875885 87.468 38.7552
41.172089 87.508 38.5363
41.470440 87.545 38.3082
41.770950 87.581 38.0774
42.073643 87.615 37.8520
42.378525 87.649 37.6263
42.685616 87.687 37.3983
42.994934 87.725 37.1643
43.306492 87.761 36.9183
43.620308 87.795 36.6664
43.936401 87.827 36.4131
44.254780 87.858 36.1574
44.575470 87.890 35.8996
44.898483 87.921 35.6404
45.223835 87.949 35.3781
45.551544 87.974 35.1204
45.881630 87.997 34.8761
46.214108 88.020 34.6404
46.548996 88.046 34.4122
46.886307 88.072 34.1884
47.226067 88.097 33.9650
47.568283 88.123 33.7434
47.912983 88.149 33.5246
48.260181 88.176 33.3054
48.609894 88.204 33.0815
48.962143 88.232 32.8563
49.316940 88.257 32.6325
49.674313 88.283 32.4084
50.034271 88.311 32.1834
50.396843 88.340 31.9563
50.762039 88.367 31.7250
51.129883 88.394 31.4914
51.500389 88.420 31.2576
51.873581 88.447 31.0214
52.249481 88.474 30.7803
52.628101 88.501 30.5374
53.009464 88.525 30.2943
53.393593 88.549 30.0524
53.780506 88.573 29.8137
54.170223 88.597 29.5774
54.562763 88.621 29.3443
54.958145 88.646 29.1114
55.356396 88.672 28.8763
55.757530 88.699 28.6374
56.161572 88.726 28.3916
56.568542 88.753 28.1404
56.978462 88.780 27.8850
57.391350 88.806 27.6235
57.807232 88.832 27.3538
58.226128 88.858 27.0785
58.648056 88.881 26.7987
59.073048 88.904 26.5165
59.501114 88.926 26.2344
59.932281 88.948 25.9515
60.366577 88.969 25.6676
60.804020 88.990 25.3825
61.244629 89.010 25.0959
61.688435 89.030 24.8085
62.135452 89.049 24.5209
62.585712 89.067 24.2325
63.039234 89.086 23.9435
63.496040 89.105 23.6515
63.956161 89.125 23.3542
64.419617 89.144 23.0515
64.886421 89.163 22.7438
65.356621 89.181 22.4285
65.830215 89.200 22.1034
66.307251 89.218 21.7687
66.787743 89.234 21.4227
67.271713 89.248 21.0687
67.759193 89.260 20.7087
68.250206 89.270 20.3437
68.744774 89.278 19.9750
69.242928 89.284 19.6037
69.744690 89.287 19.2315
70.250084 89.289 18.8577
70.759148 89.290 18.4832
71.271896 89.289 18.1047
71.788361 89.286 17.7185
72.308571 89.280 17.3268
72.832550 89.271 16.9279
73.360321 89.257 16.5287
73.891922 89.237 16.1330
74.427376 89.212 15.7487
74.966705 89.181 15.3828
75.509949 89.144 15.0426
76.057121 89.102 14.7365
76.608261 89.056 14.4685
77.163399 89.008 14.2459
77.722557 88.959 14.0673
78.285767 88.910 13.9356
78.853058 88.863 13.8451
79.424461 88.820 13.7939
80.000000 88.781 13.7740
80.579712 88.746 13.7774
81.163628 88.715 13.8019
81.751770 88.687 13.8431
82.344177 88.663 13.8999
82.940880 88.643 13.9707
83.541901 88.627 14.0528
84.147285 88.614 14.1427
84.757050 88.604 14.2418
85.371231 88.597 14.3513
85.989868 88.595 14.4688
86.612984 88.597 14.5942
87.240616 88.605 14.7208
87.872803 88.619 14.8429
88.509560 88.638 14.9558
89.150940 88.662 15.0544
89.796967 88.691 15.1339
90.447670 88.725 15.1887
91.103088 88.762 15.2160
91.763260 88.801 15.2107
92.428215 88.842 15.1731
93.097992 88.884 15.1008
93.772614 88.925 14.9972
94.452133 88.964 14.8634
95.136566 89.000 14.7044
95.825966 89.034 14.5248
96.520363 89.065 14.3274
97.219788 89.094 14.1148
97.924286 89.119 13.8925
98.633881 89.140 13.6652
99.348625 89.158 13.4375
100.068542 89.173 13.2161
100.793686 89.187 12.9985
101.524078 89.200 12.7846
102.259766 89.213 12.5735
103.000778 89.224 12.3643
103.747162 89.235 12.1574
104.498962 89.245 11.9532
105.256203 89.255 11.7514
106.018929 89.264 11.5513
106.787186 89.272 11.3534
107.561012 89.279 11.1567
108.340446 89.286 10.9643
109.125526 89.291 10.7796
109.916290 89.296 10.6013
110.712791 89.303 10.4306
111.515060 89.310 10.2634
112.323143 89.318 10.0955
113.137085 89.327 9.9274
113.956924 89.337 9.7580
114.782700 89.347 9.5864
115.614464 89.358 9.4123
116.452255 89.369 9.2333
117.296112 89.381 9.0468
118.146095 89.393 8.8534
119.002228 89.404 8.6524
119.864563 89.415 8.4456
120.733154 89.425 8.2343
121.608040 89.434 8.0185
122.489258 89.443 7.7982
123.376869 89.451 7.5736
124.270905 89.458 7.3432
125.171425 89.463 7.1114
126.078468 89.466 6.8820
126.992081 89.468 6.6555
127.912323 89.469 6.4341
128.839233 89.470 6.2174
129.772842 89.470 6.0059
130.713242 89.470 5.7994
131.660431 89.470 5.5987
132.614502 89.471 5.4025
133.575485 89.472 5.2105
134.543427 89.473 5.0214
135.518387 89.475 4.8346
136.500412 89.479 4.6474
137.489548 89.485 4.4580
138.485855 89.492 4.2625
139.489380 89.500 4.0562
140.500168 89.509 3.8395
141.518295 89.518 3.6115
142.543793 89.527 3.3716
143.576721 89.535 3.1186
144.617142 89.543 2.8536
145.665100 89.549 2.5771
146.720642 89.554 2.2908
147.783844 89.557 1.9967
148.854752 89.558 1.6948
149.933411 89.559 1.3864
151.019897 89.558 1.0698
152.114243 89.555 0.7434
153.216522 89.550 0.4090
154.326797 89.542 0.0661
155.445114 89.531 -0.2802
156.571533 89.516 -0.6268
157.706116 89.497 -0.9692
158.848923 89.474 -1.3027
160.000000 89.448 -1.6252
161.159424 89.420 -1.9332
162.327255 89.390 -2.2264
163.503540 89.358 -2.5030
164.688354 89.325 -2.7635
165.881760 89.291 -3.0066
167.083801 89.257 -3.2344
168.294571 89.223 -3.4475
169.514099 89.189 -3.6485
170.742462 89.156 -3.8400
171.979736 89.124 -4.0225
173.225967 89.091 -4.1979
174.481232 89.058 -4.3646
175.745605 89.025 -4.5211
177.019119 88.993 -4.6696
178.301880 88.963 -4.8105
179.593933 88.933 -4.9476
180.895340 88.904 -5.0865
182.206177 88.875 -5.2227
183.526520 88.844 -5.3533
184.856430 88.812 -5.4787
186.195984 88.783 -5.5974
187.545227 88.754 -5.7127
188.904266 88.725 -5.8295
190.273132 88.695 -5.9427
191.651932 88.664 -6.0489
193.040726 88.632 -6.1487
194.439575 88.603 -6.2409
195.848572 88.574 -6.3288
197.267761 88.545 -6.4168
198.697250 88.515 -6.4998
200.137085 88.483 -6.5735
201.587372 88.452 -6.6389
203.048157 88.424 -6.6945
204.519531 88.396 -6.7439
206.001556 88.369 -6.7908
207.494324 88.342 -6.8329
208.997925 88.316 -6.8675
210.512405 88.292 -6.8999
212.037857 88.271 -6.9340
213.574371 88.252 -6.9719
215.122025 88.233 -7.0183
216.680893 88.214 -7.0699
218.251053 88.196 -7.1240
219.832581 88.178 -7.1838
221.425583 88.161 -7.2525
223.030121 88.143 -7.3268
224.646286 88.124 -7.4044
226.274170 88.104 -7.4858
227.913849 88.086 -7.5705
229.565399 88.067 -7.6598
231.228928 88.047 -7.7565
232.904510 88.026 -7.8557
234.592224 88.003 -7.9529
236.292191 87.978 -8.0497
238.004456 87.954 -8.1466
239.729126 87.930 -8.2427
241.466309 87.903 -8.3389
243.216080 87.875 -8.4308
244.978516 87.846 -8.5134
246.753738 87.816 -8.5898
248.541809 87.788 -8.6601
250.342850 87.760 -8.7278
252.156937 87.732 -8.7978
253.984161 87.704 -8.8668
255.824646 87.675 -8.9325
257.678467 87.645 -8.9968
259.545685 87.618 -9.0602
261.426483 87.590 -9.1248
263.320862 87.561 -9.1937
265.229004 87.531 -9.2648
267.150970 87.501 -9.3374
269.086853 87.469 -9.4108
271.036774 87.437 -9.4856
273.000824 87.402 -9.5578
274.979095 87.364 -9.6245
276.971710 87.325 -9.6828
278.978760 87.285 -9.7284
281.000336 87.244 -9.7629
283.036591 87.203 -9.7871
285.087585 87.161 -9.8000
287.153442 87.119 -9.8002
289.234283 87.077 -9.7900
291.330200 87.037 -9.7698
293.441284 86.998 -9.7441
295.567688 86.960 -9.7178
297.709503 86.923 -9.6901
299.866821 86.885 -9.6628
302.039795 86.847 -9.6321
304.228485 86.807 -9.5944
306.433044 86.766 -9.5501
308.653595 86.726 -9.4993
310.890228 86.686 -9.4402
313.143066 86.644 -9.3708
315.412231 86.603 -9.2922
317.697845 86.564 -9.2038
320.000000 86.525 -9.1083
322.318848 86.486 -9.0089
324.654510 86.448 -8.9033
327.007080 86.410 -8.7893
329.376709 86.372 -8.6694
331.763519 86.336 -8.5461
334.167603 86.301 -8.4174
336.589142 86.265 -8.2827
339.028198 86.229 -8.1404
341.484924 86.194 -7.9874
343.959473 86.161 -7.8284
346.451935 86.131 -7.6674
348.962463 86.102 -7.5045
351.491211 86.073 -7.3391
354.038239 86.046 -7.1765
356.603760 86.023 -7.0218
359.187866 86.001 -6.8744
361.790680 85.977 -6.7380
364.412354 85.951 -6.6054
367.053040 85.925 -6.4704
369.712860 85.898 -6.3344
372.391968 85.871 -6.1974
375.090454 85.844 -6.0574
377.808533 85.815 -5.9129
380.546265 85.786 -5.7625
383.303864 85.758 -5.6024
386.081451 85.730 -5.4375
388.879150 85.704 -5.2712
391.697144 85.679 -5.1045
394.535522 85.654 -4.9407
397.394501 85.628 -4.7765
400.274170 85.602 -4.6101
403.174744 85.575 -4.4405
406.096313 85.548 -4.2664
409.039062 85.521 -4.0876
412.003113 85.495 -3.9039
414.988647 85.468 -3.7146
417.995850 85.441 -3.5182
421.024811 85.415 -3.3166
424.075714 85.391 -3.1105
427.148743 85.367 -2.9027
430.244049 85.344 -2.6967
433.361786 85.322 -2.4907
436.502106 85.299 -2.2840
439.665161 85.276 -2.0766
442.851166 85.254 -1.8686
446.060242 85.231 -1.6597
449.292572 85.208 -1.4502
452.548340 85.184 -1.2377
455.827698 85.160 -1.0198
459.130798 85.135 -0.7967
462.457855 85.110 -0.5684
465.809021 85.084 -0.3328
469.184448 85.058 -0.0883
472.584381 85.031 0.1672
476.008911 85.004 0.4368
479.458252 84.977 0.7191
482.932617 84.952 1.0134
486.432159 84.927 1.3210
489.957031 84.903 1.6440
493.507477 84.881 1.9789
497.083618 84.863 2.3248
500.685699 84.847 2.6768
504.313873 84.834 3.0301
507.968323 84.824 3.3839
511.649292 84.816 3.7367
515.356934 84.810 4.0859
519.091370 84.807 4.4279
522.852966 84.805 4.7629
526.641724 84.804 5.0889
530.458008 84.803 5.4080
534.301941 84.803 5.7215
538.173706 84.803 6.0300
542.073547 84.803 6.3337
546.001648 84.803 6.6340
549.958191 84.803 6.9323
553.943420 84.803 7.2290
557.957520 84.803 7.5251
562.000671 84.803 7.8210
566.073181 84.803 8.1171
570.175171 84.803 8.4140
574.306885 84.803 8.7122
578.468567 84.803 9.0120
582.660400 84.803 9.3135
586.882568 84.803 9.6179
591.135376 84.803 9.9266
595.419006 84.803 10.2399
599.733643 84.803 10.5591
604.079590 84.804 10.8839
608.456970 84.805 11.2143
612.866089 84.808 11.5499
617.307190 84.812 11.8912
621.780457 84.817 12.2349
626.286133 84.824 12.5776
630.824463 84.832 12.9199
635.395691 84.840 13.2605
640.000000 84.849 13.6008
644.637695 84.859 13.9410
649.309021 84.869 14.2828
654.014160 84.878 14.6278
658.753418 84.888 14.9768
663.527039 84.899 15.3310
668.335205 84.910 15.6908
673.178284 84.922 16.0571
678.056396 84.935 16.4287
682.969849 84.950 16.8060
687.918945 84.967 17.1857
692.903870 84.987 17.5649
697.924927 85.008 17.9437
702.982422 85.030 18.3207
708.076477 85.053 18.6966
713.207520 85.077 19.0713
718.375732 85.103 19.4457
723.581360 85.129 19.8200
728.824707 85.156 20.1957
734.106079 85.184 20.5748
739.425720 85.214 20.9546
744.783936 85.247 21.3332
750.180908 85.282 21.7097
755.617065 85.317 22.0830
761.092529 85.355 22.4527
766.607727 85.395 22.8184
772.162903 85.437 23.1787
777.758301 85.480 23.5316
783.394287 85.524 23.8778
789.071045 85.569 24.2176
794.789001 85.616 24.5508
800.548340 85.664 24.8783
806.349487 85.714 25.1979
812.192627 85.765 25.5079
818.078125 85.817 25.8079
824.006226 85.870 26.0965
829.977295 85.924 26.3750
835.991699 85.977 26.6437
842.049622 86.031 26.9041
848.151428 86.084 27.1568
854.297485 86.138 27.4051
860.488098 86.190 27.6520
866.723572 86.242 27.8981
873.004211 86.295 28.1457
879.330322 86.350 28.3931
885.702332 86.406 28.6403
892.120483 86.464 28.8851
898.585144 86.524 29.1265
905.096680 86.586 29.3611
911.655396 86.650 29.5859
918.261597 86.717 29.7992
924.915710 86.784 29.9987
931.618042 86.853 30.1834
938.368896 86.924 30.3518
945.168762 86.996 30.5025
952.017822 87.068 30.6328
958.916504 87.140 30.7446
965.865234 87.211 30.8390
972.864319 87.282 30.9157
979.914062 87.353 30.9737
987.014954 87.422 31.0169
994.167236 87.487 31.0472
1001.371399 87.550 31.0699
1008.627747 87.612 31.0915
1015.936646 87.673 31.1109
1023.298584 87.733 31.1307
