* Measurement data measured by REW V5.20.13
* Source: C:\Users\kurin\Desktop\Targets and Curves\Resolve\Img\Lecram\DCA Stealth_SPL.txt
* Format: Comma/Tab/Space delimited data
* Dated: Aug 15, 2023 3:26:09 PM
* REW Settings:
*  C-weighting compensation: Off
*  Target level: 75.0 dB
* Note: ; Measurement imported from C:\Users\kurin\Desktop\Targets and Curves\Resolve\Img\Lecram\DCA Stealth_SPL.txt Format: Comma/Tab/Space delimited data 623 values loaded, 5 Hz to 39,792 Hz log spaced 
* Measurement: DCA Stealth_SPL
* Smoothing: 1/48 octave
* Frequency Step: 1/96 octave
* Start Frequency: 5.000 Hz
*
* Freq(Hz) SPL(dB) Phase(degrees)
5.000000 94.675 -22.3540
5.036232 94.668 -22.3534
5.072727 94.660 -22.3530
5.109486 94.652 -22.3529
5.146511 94.642 -22.3530
5.183805 94.630 -22.3529
5.221369 94.617 -22.3530
5.259205 94.603 -22.3539
5.297316 94.589 -22.3550
5.335702 94.574 -22.3559
5.374367 94.558 -22.3570
5.413311 94.543 -22.3584
5.452538 94.527 -22.3600
5.492050 94.511 -22.3620
5.531847 94.496 -22.3640
5.571934 94.481 -22.3655
5.612310 94.466 -22.3670
5.652979 94.451 -22.3690
5.693943 94.435 -22.3710
5.735204 94.419 -22.3725
5.776763 94.404 -22.3740
5.818624 94.389 -22.3759
5.860788 94.373 -22.3780
5.903258 94.357 -22.3800
5.946035 94.342 -22.3820
5.989123 94.327 -22.3840
6.032523 94.312 -22.3860
6.076237 94.297 -22.3880
6.120268 94.281 -22.3900
6.164618 94.266 -22.3920
6.209289 94.250 -22.3940
6.254284 94.235 -22.3959
6.299605 94.219 -22.3980
6.345255 94.203 -22.4005
6.391235 94.188 -22.4030
6.437549 94.173 -22.4050
6.484198 94.158 -22.4070
6.531185 94.143 -22.4095
6.578513 94.127 -22.4120
6.626183 94.112 -22.4140
6.674199 94.096 -22.4160
6.722563 94.081 -22.4184
6.771278 94.065 -22.4210
6.820345 94.049 -22.4235
6.869768 94.034 -22.4260
6.919549 94.019 -22.4285
6.969691 94.004 -22.4310
7.020196 93.989 -22.4335
7.071068 93.973 -22.4360
7.122308 93.958 -22.4385
7.173919 93.942 -22.4410
7.225904 93.927 -22.4434
7.278266 93.911 -22.4460
7.331007 93.895 -22.4490
7.384131 93.880 -22.4520
7.437639 93.865 -22.4545
7.491535 93.850 -22.4570
7.545822 93.835 -22.4600
7.600502 93.819 -22.4630
7.655579 93.804 -22.4655
7.711054 93.788 -22.4680
7.766932 93.773 -22.4709
7.823214 93.757 -22.4740
7.879904 93.741 -22.4770
7.937005 93.726 -22.4800
7.994520 93.711 -22.4830
8.052452 93.696 -22.4860
8.110803 93.681 -22.4890
8.169578 93.665 -22.4920
8.228777 93.650 -22.4949
8.288406 93.634 -22.4980
8.348468 93.619 -22.5015
8.408964 93.603 -22.5050
8.469899 93.587 -22.5080
8.531276 93.572 -22.5110
8.593097 93.557 -22.5144
8.655366 93.542 -22.5180
8.718086 93.527 -22.5215
8.781260 93.511 -22.5250
8.844893 93.496 -22.5285
8.908987 93.480 -22.5320
8.973545 93.465 -22.5355
9.038571 93.449 -22.5390
9.104069 93.433 -22.5425
9.170040 93.418 -22.5460
9.236490 93.403 -22.5494
9.303422 93.388 -22.5530
9.370838 93.373 -22.5569
9.438744 93.357 -22.5610
9.507140 93.342 -22.5651
9.576033 93.326 -22.5690
9.645425 93.311 -22.5725
9.715320 93.295 -22.5760
9.785721 93.279 -22.5799
9.856632 93.264 -22.5840
9.928058 93.249 -22.5885
10.000000 93.234 -22.5930
10.072464 93.219 -22.5971
10.145453 93.203 -22.6010
10.218971 93.188 -22.6049
10.293022 93.172 -22.6090
10.367610 93.157 -22.6134
10.442738 93.141 -22.6180
10.518411 93.125 -22.6225
10.594631 93.110 -22.6270
10.671404 93.095 -22.6315
10.748734 93.080 -22.6360
10.826623 93.065 -22.6404
10.905077 93.049 -22.6450
10.984100 93.034 -22.6500
11.063695 93.018 -22.6550
11.143867 93.003 -22.6595
11.224621 92.987 -22.6640
11.305959 92.971 -22.6689
11.387886 92.956 -22.6740
11.470407 92.941 -22.6789
11.553527 92.926 -22.6840
11.637249 92.911 -22.6895
11.721577 92.895 -22.6950
11.806517 92.880 -22.7000
11.892071 92.864 -22.7050
11.978246 92.849 -22.7104
12.065045 92.833 -22.7160
12.152473 92.817 -22.7215
12.240536 92.802 -22.7270
12.329235 92.787 -22.7324
12.418578 92.772 -22.7380
12.508568 92.757 -22.7439
12.599211 92.741 -22.7500
12.690510 92.726 -22.7560
12.782471 92.710 -22.7620
12.875097 92.695 -22.7680
12.968395 92.679 -22.7740
13.062370 92.663 -22.7799
13.157025 92.648 -22.7860
13.252366 92.633 -22.7924
13.348398 92.618 -22.7990
13.445127 92.603 -22.8054
13.542556 92.587 -22.8120
13.640691 92.572 -22.8190
13.739536 92.556 -22.8260
13.839099 92.541 -22.8325
13.939383 92.525 -22.8390
14.040393 92.509 -22.8459
14.142136 92.494 -22.8530
14.244616 92.479 -22.8605
14.347837 92.464 -22.8680
14.451808 92.449 -22.8749
14.556532 92.433 -22.8820
14.662014 92.418 -22.8899
14.768262 92.402 -22.8980
14.875278 92.387 -22.9055
14.983070 92.371 -22.9130
15.091644 92.355 -22.9209
15.201005 92.340 -22.9290
15.311157 92.325 -22.9374
15.422109 92.310 -22.9460
15.533863 92.295 -22.9545
15.646428 92.279 -22.9630
15.759809 92.264 -22.9714
15.874010 92.248 -22.9800
15.989040 92.233 -22.9889
16.104904 92.217 -22.9980
16.221605 92.201 -23.0074
16.339155 92.186 -23.0170
16.457554 92.171 -23.0265
16.576813 92.156 -23.0360
16.696936 92.141 -23.0454
16.817928 92.125 -23.0550
16.939798 92.110 -23.0649
17.062551 92.094 -23.0750
17.186193 92.079 -23.0854
17.310732 92.063 -23.0960
17.436172 92.047 -23.1065
17.562521 92.032 -23.1170
17.689787 92.017 -23.1274
17.817974 92.002 -23.1380
17.947090 91.987 -23.1494
18.077143 91.971 -23.1610
18.208138 91.956 -23.1720
18.340080 91.940 -23.1830
18.472980 91.925 -23.1944
18.606844 91.909 -23.2060
18.741676 91.893 -23.2176
18.877487 91.878 -23.2290
19.014280 91.863 -23.2400
19.152065 91.848 -23.2510
19.290850 91.832 -23.2619
19.430639 91.817 -23.2730
19.571442 91.802 -23.2844
19.713264 91.788 -23.2970
19.856115 91.774 -23.3117
20.000000 91.760 -23.3290
20.144928 91.746 -23.3504
20.290907 91.731 -23.3740
20.437943 91.716 -23.3989
20.586044 91.700 -23.4230
20.735220 91.683 -23.4444
20.885475 91.665 -23.4620
21.036821 91.647 -23.4734
21.189262 91.630 -23.4800
21.342808 91.614 -23.4814
21.497467 91.599 -23.4810
21.653246 91.585 -23.4808
21.810154 91.573 -23.4840
21.968201 91.562 -23.4938
22.127390 91.552 -23.5120
22.287735 91.542 -23.5425
22.449242 91.532 -23.5820
22.611917 91.521 -23.6289
22.775772 91.508 -23.6809
22.940815 91.494 -23.7361
23.107054 91.478 -23.7919
23.274498 91.461 -23.8451
23.443153 91.444 -23.8959
23.613033 91.427 -23.9433
23.784142 91.409 -23.9890
23.956491 91.391 -24.0355
24.130091 91.372 -24.0800
24.304947 91.352 -24.1200
24.481071 91.332 -24.1560
24.658470 91.313 -24.1868
24.837156 91.295 -24.2150
25.017136 91.276 -24.2427
25.198421 91.258 -24.2700
25.381020 91.241 -24.2971
25.564941 91.225 -24.3260
25.750195 91.209 -24.3580
25.936790 91.194 -24.3950
26.124741 91.179 -24.4397
26.314051 91.164 -24.4909
26.504732 91.148 -24.5495
26.696796 91.130 -24.6119
26.890253 91.111 -24.6758
27.085112 91.091 -24.7389
27.281382 91.069 -24.7991
27.479073 91.046 -24.8539
27.678198 91.023 -24.9000
27.878765 90.999 -24.9389
28.080786 90.976 -24.9698
28.284271 90.954 -24.9970
28.489231 90.934 -25.0237
28.695675 90.915 -25.0520
28.903616 90.897 -25.0841
29.113064 90.879 -25.1219
29.324028 90.863 -25.1682
29.536524 90.846 -25.2229
29.750557 90.828 -25.2878
29.966141 90.809 -25.3599
30.183289 90.789 -25.4376
30.402010 90.768 -25.5189
30.622314 90.744 -25.6028
30.844217 90.719 -25.6849
31.067726 90.691 -25.7598
31.292856 90.663 -25.8289
31.519617 90.636 -25.8905
31.748020 90.608 -25.9489
31.978081 90.580 -26.0089
32.209808 90.552 -26.0669
32.443211 90.522 -26.1207
32.678310 90.491 -26.1719
32.915108 90.462 -26.2203
33.153625 90.434 -26.2689
33.393871 90.405 -26.3227
33.635857 90.375 -26.3769
33.879597 90.342 -26.4286
34.125103 90.309 -26.4779
34.372387 90.276 -26.5244
34.621464 90.243 -26.5679
34.872345 90.208 -26.6084
35.125042 90.172 -26.6450
35.379574 90.136 -26.6762
35.635948 90.099 -26.7030
35.894180 90.062 -26.7262
36.154285 90.024 -26.7450
36.416275 89.985 -26.7585
36.680161 89.946 -26.7670
36.945961 89.906 -26.7711
37.213688 89.866 -26.7690
37.483353 89.824 -26.7604
37.754974 89.781 -26.7420
38.028561 89.737 -26.7097
38.304131 89.692 -26.6661
38.581699 89.649 -26.6123
38.861279 89.606 -26.5481
39.142883 89.562 -26.4737
39.426529 89.519 -26.3891
39.712231 89.477 -26.2938
40.000000 89.436 -26.1892
40.289856 89.395 -26.0776
40.581814 89.354 -25.9562
40.875885 89.313 -25.8226
41.172089 89.273 -25.6772
41.470440 89.234 -25.5198
41.770950 89.197 -25.3503
42.073643 89.161 -25.1684
42.378525 89.127 -24.9743
42.685616 89.095 -24.7661
42.994934 89.066 -24.5503
43.306492 89.043 -24.3316
43.620308 89.023 -24.1133
43.936401 89.005 -23.8999
44.254780 88.991 -23.6933
44.575470 88.981 -23.4952
44.898483 88.974 -23.3113
45.223835 88.970 -23.1482
45.551544 88.968 -23.0052
45.881630 88.965 -22.8842
46.214108 88.963 -22.7841
46.548996 88.962 -22.7054
46.886307 88.959 -22.6451
47.226067 88.953 -22.6017
47.568283 88.945 -22.5710
47.912983 88.936 -22.5485
48.260181 88.924 -22.5330
48.609894 88.910 -22.5231
48.962143 88.894 -22.5160
49.316940 88.875 -22.5091
49.674313 88.854 -22.5010
50.034271 88.832 -22.4903
50.396843 88.808 -22.4750
50.762039 88.781 -22.4539
51.129883 88.752 -22.4241
51.500389 88.721 -22.3826
51.873581 88.689 -22.3281
52.249481 88.656 -22.2588
52.628101 88.622 -22.1732
53.009464 88.587 -22.0684
53.393593 88.552 -21.9462
53.780506 88.519 -21.8069
54.170223 88.487 -21.6513
54.562763 88.455 -21.4796
54.958145 88.424 -21.2933
55.356396 88.398 -21.0923
55.757530 88.374 -20.8813
56.161572 88.353 -20.6651
56.568542 88.334 -20.4444
56.978462 88.317 -20.2206
57.391350 88.303 -19.9964
57.807232 88.293 -19.7733
58.226128 88.286 -19.5554
58.648056 88.282 -19.3475
59.073048 88.279 -19.1493
59.501114 88.277 -18.9622
59.932281 88.276 -18.7853
60.366577 88.276 -18.6190
60.804020 88.276 -18.4613
61.244629 88.276 -18.3103
61.688435 88.276 -18.1652
62.135452 88.276 -18.0248
62.585712 88.276 -17.8882
63.039234 88.276 -17.7549
63.496040 88.276 -17.6232
63.956161 88.276 -17.4919
64.419617 88.276 -17.3602
64.886421 88.277 -17.2274
65.356621 88.278 -17.0932
65.830215 88.280 -16.9570
66.307251 88.283 -16.8203
66.787743 88.288 -16.6835
67.271713 88.295 -16.5492
67.759193 88.304 -16.4200
68.250206 88.314 -16.2962
68.744774 88.325 -16.1784
69.242928 88.338 -16.0692
69.744690 88.354 -15.9699
70.250084 88.372 -15.8851
70.759148 88.392 -15.8206
71.271896 88.412 -15.7751
71.788361 88.431 -15.7500
72.308571 88.449 -15.7430
72.832550 88.467 -15.7523
73.360321 88.484 -15.7769
73.891922 88.498 -15.8165
74.427376 88.510 -15.8669
74.966705 88.519 -15.9253
75.509949 88.526 -15.9869
76.057121 88.530 -16.0462
76.608261 88.532 -16.1029
77.163399 88.533 -16.1545
77.722557 88.534 -16.2019
78.285767 88.534 -16.2447
78.853058 88.534 -16.2839
79.424461 88.534 -16.3201
80.000000 88.534 -16.3539
80.579712 88.534 -16.3867
81.163628 88.534 -16.4179
81.751770 88.534 -16.4473
82.344177 88.535 -16.4749
82.940880 88.536 -16.5009
83.541901 88.537 -16.5259
84.147285 88.539 -16.5496
84.757050 88.542 -16.5749
85.371231 88.547 -16.6034
85.989868 88.554 -16.6389
86.612984 88.562 -16.6860
87.240616 88.571 -16.7439
87.872803 88.579 -16.8135
88.509560 88.587 -16.8948
89.150940 88.595 -16.9882
89.796967 88.603 -17.0928
90.447670 88.609 -17.2088
91.103088 88.614 -17.3327
91.763260 88.617 -17.4614
92.428215 88.619 -17.5937
93.097992 88.620 -17.7272
93.772614 88.621 -17.8627
94.452133 88.621 -18.0002
95.136566 88.621 -18.1407
95.825966 88.621 -18.2849
96.520363 88.621 -18.4337
97.219788 88.621 -18.5879
97.924286 88.621 -18.7487
98.633881 88.621 -18.9170
99.348625 88.621 -19.0936
100.068542 88.621 -19.2791
100.793686 88.621 -19.4755
101.524078 88.621 -19.6846
102.259766 88.621 -19.9084
103.000778 88.620 -20.1488
103.747162 88.619 -20.4075
104.498962 88.617 -20.6874
105.256203 88.612 -20.9874
106.018929 88.605 -21.3085
106.787186 88.594 -21.6473
107.561012 88.579 -22.0021
108.340446 88.559 -22.3694
109.125526 88.535 -22.7461
109.916290 88.506 -23.1293
110.712791 88.472 -23.5167
111.515060 88.432 -23.9032
112.323143 88.387 -24.2845
113.137085 88.336 -24.6562
113.956924 88.280 -25.0130
114.782700 88.219 -25.3531
115.614464 88.154 -25.6742
116.452255 88.085 -25.9734
117.296112 88.012 -26.2487
118.146095 87.936 -26.4965
119.002228 87.857 -26.7116
119.864563 87.776 -26.8975
120.733154 87.696 -27.0540
121.608040 87.616 -27.1867
122.489258 87.537 -27.3006
123.376869 87.458 -27.3978
124.270905 87.379 -27.4815
125.171425 87.300 -27.5539
126.078468 87.222 -27.6183
126.992081 87.143 -27.6739
127.912323 87.063 -27.7220
128.839233 86.980 -27.7589
129.772842 86.895 -27.7828
130.713242 86.808 -27.7890
131.660431 86.718 -27.7734
132.614502 86.625 -27.7332
133.575485 86.531 -27.6635
134.543427 86.436 -27.5662
135.518387 86.342 -27.4416
136.500412 86.247 -27.2893
137.489548 86.152 -27.1091
138.485855 86.057 -26.9006
139.489380 85.963 -26.6627
140.500168 85.870 -26.3966
141.518295 85.778 -26.1037
142.543793 85.687 -25.7818
143.576721 85.598 -25.4293
144.617142 85.510 -25.0469
145.665100 85.425 -24.6349
146.720642 85.343 -24.1943
147.783844 85.264 -23.7245
148.854752 85.189 -23.2293
149.933411 85.120 -22.7108
151.019897 85.055 -22.1734
152.114243 84.995 -21.6218
153.216522 84.940 -21.0566
154.326797 84.889 -20.4786
155.445114 84.843 -19.8914
156.571533 84.804 -19.2971
157.706116 84.770 -18.7004
158.848923 84.741 -18.1060
160.000000 84.717 -17.5154
161.159424 84.697 -16.9316
162.327255 84.682 -16.3553
163.503540 84.671 -15.7877
164.688354 84.664 -15.2312
165.881760 84.660 -14.6895
167.083801 84.659 -14.1594
168.294571 84.659 -13.6388
169.514099 84.662 -13.1272
170.742462 84.668 -12.6232
171.979736 84.676 -12.1273
173.225967 84.686 -11.6400
174.481232 84.699 -11.1611
175.745605 84.715 -10.6892
177.019119 84.734 -10.2291
178.301880 84.758 -9.7838
179.593933 84.786 -9.3571
180.895340 84.815 -8.9540
182.206177 84.847 -8.5739
183.526520 84.880 -8.2179
184.856430 84.915 -7.8857
186.195984 84.950 -7.5788
187.545227 84.985 -7.2937
188.904266 85.019 -7.0275
190.273132 85.052 -6.7796
191.651932 85.086 -6.5481
193.040726 85.120 -6.3336
194.439575 85.153 -6.1367
195.848572 85.186 -5.9555
197.267761 85.218 -5.7879
198.697250 85.249 -5.6354
200.137085 85.281 -5.4994
201.587372 85.311 -5.3783
203.048157 85.338 -5.2717
204.519531 85.364 -5.1763
206.001556 85.388 -5.0887
207.494324 85.411 -5.0082
208.997925 85.432 -4.9330
210.512405 85.451 -4.8622
212.037857 85.469 -4.7938
213.574371 85.486 -4.7291
215.122025 85.503 -4.6680
216.680893 85.520 -4.6121
218.251053 85.536 -4.5645
219.832581 85.550 -4.5221
221.425583 85.562 -4.4834
223.030121 85.572 -4.4471
224.646286 85.581 -4.4121
226.274170 85.589 -4.3771
227.913849 85.594 -4.3414
229.565399 85.598 -4.3021
231.228928 85.600 -4.2561
232.904510 85.602 -4.2032
234.592224 85.603 -4.1421
236.292191 85.603 -4.0732
238.004456 85.604 -3.9961
239.729126 85.606 -3.9122
241.466309 85.607 -3.8219
243.216080 85.610 -3.7283
244.978516 85.615 -3.6335
246.753738 85.622 -3.5413
248.541809 85.630 -3.4563
250.342850 85.638 -3.3782
252.156937 85.646 -3.3081
253.984161 85.655 -3.2462
255.824646 85.663 -3.1931
257.678467 85.671 -3.1481
259.545685 85.678 -3.1117
261.426483 85.683 -3.0801
263.320862 85.686 -3.0499
265.229004 85.688 -3.0201
267.150970 85.689 -2.9880
269.086853 85.690 -2.9551
271.036774 85.690 -2.9220
273.000824 85.690 -2.8891
274.979095 85.689 -2.8568
276.971710 85.688 -2.8261
278.978760 85.686 -2.7987
281.000336 85.683 -2.7721
283.036591 85.678 -2.7451
285.087585 85.671 -2.7151
287.153442 85.663 -2.6786
289.234283 85.655 -2.6361
291.330200 85.646 -2.5873
293.441284 85.636 -2.5322
295.567688 85.625 -2.4711
297.709503 85.614 -2.4022
299.866821 85.602 -2.3232
302.039795 85.590 -2.2353
304.228485 85.579 -2.1380
306.433044 85.569 -2.0333
308.653595 85.560 -1.9232
310.890228 85.551 -1.8073
313.143066 85.543 -1.6857
315.412231 85.535 -1.5594
317.697845 85.529 -1.4287
320.000000 85.524 -1.2964
322.318848 85.521 -1.1647
324.654510 85.519 -1.0354
327.007080 85.518 -0.9113
329.376709 85.517 -0.7914
331.763519 85.517 -0.6754
334.167603 85.517 -0.5633
336.589142 85.517 -0.4556
339.028198 85.517 -0.3513
341.484924 85.517 -0.2495
343.959473 85.517 -0.1503
346.451935 85.517 -0.0533
348.962463 85.517 0.0407
351.491211 85.517 0.1317
354.038239 85.517 0.2188
356.603760 85.517 0.3012
359.187866 85.517 0.3788
361.790680 85.516 0.4512
364.412354 85.515 0.5178
367.053040 85.514 0.5767
369.712860 85.511 0.6308
372.391968 85.505 0.6815
375.090454 85.497 0.7319
377.808533 85.487 0.7852
380.546265 85.476 0.8428
383.303864 85.462 0.9060
386.081451 85.447 0.9778
388.879150 85.430 1.0620
391.697144 85.412 1.1577
394.535522 85.394 1.2655
397.394501 85.375 1.3846
400.274170 85.356 1.5133
403.174744 85.337 1.6545
406.096313 85.316 1.8106
409.039062 85.295 1.9814
412.003113 85.276 2.1686
414.988647 85.257 2.3693
417.995850 85.239 2.5817
421.024811 85.223 2.8053
424.075714 85.209 3.0401
427.148743 85.197 3.2822
430.244049 85.187 3.5288
433.361786 85.179 3.7762
436.502106 85.173 4.0192
439.665161 85.168 4.2603
442.851166 85.161 4.4981
446.060242 85.154 4.7392
449.292572 85.146 4.9893
452.548340 85.138 5.2492
455.827698 85.130 5.5208
459.130798 85.123 5.8061
462.457855 85.116 6.1080
465.809021 85.110 6.4250
469.184448 85.108 6.7586
472.584381 85.110 7.1019
476.008911 85.116 7.4493
479.458252 85.125 7.7979
482.932617 85.138 8.1433
486.432159 85.154 8.4839
489.957031 85.172 8.8165
493.507477 85.193 9.1410
497.083618 85.215 9.4566
500.685699 85.239 9.7630
504.313873 85.265 10.0595
507.968323 85.293 10.3471
511.649292 85.320 10.6252
515.356934 85.348 10.8971
519.091370 85.376 11.1670
522.852966 85.406 11.4321
526.641724 85.438 11.6910
530.458008 85.472 11.9432
534.301941 85.505 12.1877
538.173706 85.539 12.4252
542.073547 85.575 12.6572
546.001648 85.614 12.8803
549.958191 85.654 13.0913
553.943420 85.695 13.2904
557.957520 85.736 13.4767
562.000671 85.778 13.6504
566.073181 85.820 13.8119
570.175171 85.863 13.9605
574.306885 85.906 14.0956
578.468567 85.949 14.2186
582.660400 85.990 14.3310
586.882568 86.032 14.4327
591.135376 86.074 14.5237
595.419006 86.116 14.6047
599.733643 86.155 14.6760
604.079590 86.194 14.7388
608.456970 86.233 14.7954
612.866089 86.272 14.8439
617.307190 86.310 14.8816
621.780457 86.347 14.9119
626.286133 86.382 14.9379
630.824463 86.416 14.9579
635.395691 86.451 14.9717
640.000000 86.485 14.9790
644.637695 86.517 14.9779
649.309021 86.547 14.9730
654.014160 86.575 14.9688
658.753418 86.602 14.9640
663.527039 86.629 14.9583
668.335205 86.655 14.9530
673.178284 86.678 14.9493
678.056396 86.701 14.9480
682.969849 86.724 14.9512
687.918945 86.747 14.9570
692.903870 86.769 14.9649
697.924927 86.792 14.9730
702.982422 86.815 14.9792
708.076477 86.838 14.9830
713.207520 86.861 14.9822
718.375732 86.883 14.9790
723.581360 86.903 14.9745
728.824707 86.923 14.9700
734.106079 86.941 14.9674
739.425720 86.959 14.9670
744.783936 86.977 14.9699
750.180908 86.994 14.9750
755.617065 87.011 14.9818
761.092529 87.029 14.9890
766.607727 87.046 14.9953
772.162903 87.063 15.0000
777.758301 87.080 15.0016
783.394287 87.096 15.0010
789.071045 87.110 14.9972
794.789001 87.123 14.9950
800.548340 87.133 14.9974
806.349487 87.142 15.0089
812.192627 87.148 15.0345
818.078125 87.153 15.0758
824.006226 87.158 15.1367
829.977295 87.163 15.2157
835.991699 87.171 15.3147
842.049622 87.181 15.4266
848.151428 87.195 15.5460
854.297485 87.211 15.6695
860.488098 87.230 15.7920
866.723572 87.251 15.9126
873.004211 87.274 16.0300
879.330322 87.300 16.1396
885.702332 87.328 16.2359
892.120483 87.358 16.3207
