* Measurement data measured by REW V5.20.13
* Source: C:\Users\kurin\Desktop\Targets and Curves\Resolve\Img\Files\Focal Celestee_SPL.txt
* Format: Comma/Tab/Space delimited data
* Dated: Aug 14, 2023 3:38:08 PM
* REW Settings:
*  C-weighting compensation: Off
*  Target level: 75.0 dB
* Note: ; Measurement imported from C:\Users\kurin\Desktop\Targets and Curves\Resolve\Img\Files\Focal Celestee_SPL.txt Format: Comma/Tab/Space delimited data 623 values loaded, 5 Hz to 39,792 Hz log spaced 
* Measurement: Focal Celestee_SPL
* Smoothing: 1/48 octave
* Frequency Step: 1/96 octave
* Start Frequency: 5.000 Hz
*
* Freq(Hz) SPL(dB) Phase(degrees)
5.000000 87.440 2.9050
5.036232 87.441 2.8963
5.072727 87.443 2.8870
5.109486 87.445 2.8764
5.146511 87.448 2.8640
5.183805 87.451 2.8488
5.221369 87.454 2.8320
5.259205 87.457 2.8149
5.297316 87.461 2.7970
5.335702 87.465 2.7778
5.374367 87.469 2.7580
5.413311 87.472 2.7386
5.452538 87.476 2.7190
5.492050 87.480 2.6991
5.531847 87.484 2.6790
5.571934 87.487 2.6591
5.612310 87.491 2.6390
5.652979 87.495 2.6186
5.693943 87.499 2.5980
5.735204 87.502 2.5771
5.776763 87.506 2.5560
5.818624 87.510 2.5346
5.860788 87.514 2.5130
5.903258 87.518 2.4915
5.946035 87.521 2.4700
5.989123 87.525 2.4486
6.032523 87.529 2.4270
6.076237 87.533 2.4046
6.120268 87.536 2.3820
6.164618 87.540 2.3595
6.209289 87.544 2.3370
6.254284 87.548 2.3146
6.299605 87.552 2.2920
6.345255 87.555 2.2686
6.391235 87.559 2.2450
6.437549 87.563 2.2216
6.484198 87.567 2.1980
6.531185 87.570 2.1741
6.578513 87.574 2.1500
6.626183 87.578 2.1261
6.674199 87.582 2.1020
6.722563 87.585 2.0771
6.771278 87.589 2.0520
6.820345 87.593 2.0270
6.869768 87.597 2.0020
6.919549 87.600 1.9771
6.969691 87.604 1.9520
7.020196 87.608 1.9262
7.071068 87.612 1.9000
7.122308 87.616 1.8736
7.173919 87.619 1.8470
7.225904 87.623 1.8206
7.278266 87.627 1.7940
7.331007 87.631 1.7671
7.384131 87.635 1.7400
7.437639 87.638 1.7126
7.491535 87.642 1.6850
7.545822 87.646 1.6571
7.600502 87.650 1.6290
7.655579 87.653 1.6006
7.711054 87.657 1.5720
7.766932 87.661 1.5436
7.823214 87.665 1.5150
7.879904 87.668 1.4856
7.937005 87.672 1.4560
7.994520 87.676 1.4266
8.052452 87.680 1.3970
8.110803 87.683 1.3666
8.169578 87.687 1.3360
8.228777 87.691 1.3056
8.288406 87.695 1.2750
8.348468 87.699 1.2436
8.408964 87.702 1.2120
8.469899 87.706 1.1806
8.531276 87.710 1.1490
8.593097 87.714 1.1166
8.655366 87.717 1.0840
8.718086 87.721 1.0516
8.781260 87.725 1.0190
8.844893 87.729 0.9857
8.908987 87.733 0.9520
8.973545 87.736 0.9181
9.038571 87.740 0.8840
9.104069 87.744 0.8496
9.170040 87.748 0.8150
9.236490 87.751 0.7801
9.303422 87.755 0.7450
9.370838 87.759 0.7096
9.438744 87.763 0.6740
9.507140 87.766 0.6382
9.576033 87.770 0.6020
9.645425 87.774 0.5652
9.715320 87.778 0.5280
9.785721 87.782 0.4906
9.856632 87.785 0.4530
9.928058 87.789 0.4151
10.000000 87.793 0.3770
10.072464 87.797 0.3387
10.145453 87.800 0.3000
10.218971 87.804 0.2607
10.293022 87.808 0.2210
10.367610 87.812 0.1811
10.442738 87.815 0.1410
10.518411 87.819 0.1007
10.594631 87.823 0.0600
10.671404 87.827 0.0188
10.748734 87.831 -0.0230
10.826623 87.834 -0.0654
10.905077 87.838 -0.1080
10.984100 87.842 -0.1503
11.063695 87.846 -0.1930
11.143867 87.849 -0.2367
11.224621 87.853 -0.2810
11.305959 87.857 -0.3254
11.387886 87.861 -0.3700
11.470407 87.864 -0.4148
11.553527 87.868 -0.4600
11.637249 87.872 -0.5057
11.721577 87.876 -0.5520
11.806517 87.880 -0.5987
11.892071 87.883 -0.6460
11.978246 87.887 -0.6938
12.065045 87.891 -0.7420
12.152473 87.895 -0.7902
12.240536 87.898 -0.8390
12.329235 87.902 -0.8887
12.418578 87.906 -0.9390
12.508568 87.910 -0.9893
12.599211 87.914 -1.0400
12.690510 87.917 -1.0912
12.782471 87.921 -1.1429
12.875097 87.925 -1.1952
12.968395 87.929 -1.2480
13.062370 87.932 -1.3012
13.157025 87.936 -1.3550
13.252366 87.940 -1.4092
13.348398 87.944 -1.4640
13.445127 87.947 -1.5192
13.542556 87.951 -1.5749
13.640691 87.955 -1.6311
13.739536 87.959 -1.6880
13.839099 87.963 -1.7457
13.939383 87.966 -1.8039
14.040393 87.970 -1.8626
14.142136 87.974 -1.9220
14.244616 87.978 -1.9822
14.347837 87.981 -2.0430
14.451808 87.985 -2.1042
14.556532 87.989 -2.1660
14.662014 87.993 -2.2281
14.768262 87.996 -2.2909
14.875278 88.000 -2.3551
14.983070 88.004 -2.4199
15.091644 88.008 -2.4851
15.201005 88.012 -2.5510
15.311157 88.015 -2.6176
15.422109 88.019 -2.6850
15.533863 88.023 -2.7531
15.646428 88.027 -2.8220
15.759809 88.030 -2.8915
15.874010 88.034 -2.9619
15.989040 88.038 -3.0336
16.104904 88.042 -3.1059
16.221605 88.046 -3.1785
16.339155 88.049 -3.2519
16.457554 88.053 -3.3269
16.576813 88.057 -3.4029
16.696936 88.061 -3.4796
16.817928 88.064 -3.5570
16.939798 88.068 -3.6349
17.062551 88.072 -3.7139
17.186193 88.076 -3.7944
17.310732 88.079 -3.8759
17.436172 88.083 -3.9584
17.562521 88.087 -4.0419
17.689787 88.091 -4.1263
17.817974 88.095 -4.2119
17.947090 88.098 -4.2993
18.077143 88.102 -4.3879
18.208138 88.106 -4.4774
18.340080 88.110 -4.5679
18.472980 88.113 -4.6597
18.606844 88.117 -4.7529
18.741676 88.121 -4.8476
18.877487 88.125 -4.9439
19.014280 88.129 -5.0420
19.152065 88.132 -5.1419
19.290850 88.136 -5.2434
19.430639 88.140 -5.3469
19.571442 88.144 -5.4529
19.713264 88.147 -5.5609
19.856115 88.150 -5.6708
20.000000 88.152 -5.7819
20.144928 88.155 -5.8935
20.290907 88.157 -6.0049
20.437943 88.159 -6.1152
20.586044 88.160 -6.2239
20.735220 88.162 -6.3305
20.885475 88.164 -6.4349
21.036821 88.166 -6.5361
21.189262 88.169 -6.6369
21.342808 88.174 -6.7384
21.497467 88.181 -6.8449
21.653246 88.189 -6.9609
21.810154 88.197 -7.0858
21.968201 88.205 -7.2204
22.127390 88.213 -7.3648
22.287735 88.222 -7.5199
22.449242 88.230 -7.6849
22.611917 88.236 -7.8606
22.775772 88.241 -8.0428
22.940815 88.244 -8.2278
23.107054 88.246 -8.4147
23.274498 88.247 -8.6015
23.443153 88.248 -8.7887
23.613033 88.248 -8.9762
23.784142 88.248 -9.1648
23.956491 88.248 -9.3549
24.130091 88.248 -9.5478
24.304947 88.248 -9.7447
24.481071 88.248 -9.9467
24.658470 88.248 -10.1552
24.837156 88.248 -10.3707
25.017136 88.247 -10.5940
25.198421 88.246 -10.8258
25.381020 88.244 -11.0670
25.564941 88.241 -11.3168
25.750195 88.236 -11.5750
25.936790 88.230 -11.8397
26.124741 88.221 -12.1079
26.314051 88.211 -12.3816
26.504732 88.200 -12.6621
26.696796 88.188 -12.9476
26.890253 88.172 -13.2383
27.085112 88.154 -13.5297
27.281382 88.133 -13.8174
27.479073 88.109 -14.1016
27.678198 88.084 -14.3813
27.878765 88.058 -14.6556
28.080786 88.029 -14.9236
28.284271 87.998 -15.1847
28.489231 87.966 -15.4375
28.695675 87.934 -15.6837
28.903616 87.901 -15.9239
29.113064 87.867 -16.1597
29.324028 87.833 -16.3920
29.536524 87.798 -16.6227
29.750557 87.763 -16.8546
29.966141 87.726 -17.0857
30.183289 87.687 -17.3155
30.402010 87.646 -17.5427
30.622314 87.603 -17.7663
30.844217 87.559 -17.9847
31.067726 87.513 -18.1967
31.292856 87.465 -18.4007
31.519617 87.415 -18.5945
31.748020 87.363 -18.7798
31.978081 87.312 -18.9570
32.209808 87.259 -19.1268
32.443211 87.204 -19.2902
32.678310 87.148 -19.4458
32.915108 87.090 -19.5922
33.153625 87.030 -19.7298
33.393871 86.970 -19.8596
33.635857 86.907 -19.9788
33.879597 86.841 -20.0861
34.125103 86.773 -20.1779
34.372387 86.703 -20.2503
34.621464 86.631 -20.3029
34.872345 86.557 -20.3348
35.125042 86.482 -20.3440
35.379574 86.405 -20.3279
35.635948 86.328 -20.2871
35.894180 86.251 -20.2214
36.154285 86.173 -20.1301
36.416275 86.094 -20.0139
36.680161 86.015 -19.8692
36.945961 85.935 -19.6933
37.213688 85.856 -19.4843
37.483353 85.778 -19.2392
37.754974 85.702 -18.9595
38.028561 85.628 -18.6452
38.304131 85.557 -18.2975
38.581699 85.490 -17.9157
38.861279 85.428 -17.5046
39.142883 85.372 -17.0670
39.426529 85.321 -16.6086
39.712231 85.277 -16.1358
40.000000 85.239 -15.6507
40.289856 85.207 -15.1556
40.581814 85.181 -14.6567
40.875885 85.163 -14.1590
41.172089 85.151 -13.6687
41.470440 85.145 -13.1943
41.770950 85.144 -12.7338
42.073643 85.145 -12.2871
42.378525 85.150 -11.8566
42.685616 85.160 -11.4448
42.994934 85.173 -11.0515
43.306492 85.187 -10.6804
43.620308 85.201 -10.3225
43.936401 85.214 -9.9709
44.254780 85.229 -9.6236
44.575470 85.246 -9.2752
44.898483 85.266 -8.9296
45.223835 85.289 -8.5884
45.551544 85.315 -8.2515
45.881630 85.344 -7.9175
46.214108 85.377 -7.5915
46.548996 85.415 -7.2764
46.886307 85.459 -6.9775
47.226067 85.507 -6.6994
47.568283 85.560 -6.4464
47.912983 85.617 -6.2228
48.260181 85.679 -6.0333
48.609894 85.744 -5.8826
48.962143 85.812 -5.7751
49.316940 85.882 -5.7159
49.674313 85.954 -5.7070
50.034271 86.026 -5.7518
50.396843 86.097 -5.8508
50.762039 86.167 -6.0065
51.129883 86.233 -6.2166
51.500389 86.293 -6.4826
51.873581 86.347 -6.7954
52.249481 86.392 -7.1489
52.628101 86.430 -7.5353
53.009464 86.459 -7.9470
53.393593 86.480 -8.3783
53.780506 86.491 -8.8240
54.170223 86.492 -9.2743
54.562763 86.483 -9.7198
54.958145 86.464 -10.1533
55.356396 86.437 -10.5670
55.757530 86.401 -10.9534
56.161572 86.356 -11.3048
56.568542 86.303 -11.6145
56.978462 86.245 -11.8742
57.391350 86.181 -12.0817
57.807232 86.113 -12.2330
58.226128 86.042 -12.3259
58.648056 85.970 -12.3546
59.073048 85.898 -12.3251
59.501114 85.830 -12.2396
59.932281 85.765 -12.1033
60.366577 85.703 -11.9210
60.804020 85.645 -11.6964
61.244629 85.592 -11.4331
61.688435 85.545 -11.1365
62.135452 85.504 -10.8123
62.585712 85.469 -10.4636
63.039234 85.440 -10.0946
63.496040 85.416 -9.7077
63.956161 85.398 -9.3050
64.419617 85.387 -8.8907
64.886421 85.383 -8.4681
65.356621 85.386 -8.0417
65.830215 85.396 -7.6160
66.307251 85.412 -7.1948
66.787743 85.435 -6.7822
67.271713 85.465 -6.3827
67.759193 85.502 -6.0009
68.250206 85.546 -5.6416
68.744774 85.594 -5.3113
69.242928 85.647 -5.0095
69.744690 85.703 -4.7378
70.250084 85.763 -4.4974
70.759148 85.826 -4.2905
71.271896 85.892 -4.1163
71.788361 85.958 -3.9759
72.308571 86.025 -3.8662
72.832550 86.093 -3.7843
73.360321 86.162 -3.7301
73.891922 86.231 -3.7032
74.427376 86.300 -3.7010
74.966705 86.368 -3.7209
75.509949 86.437 -3.7629
76.057121 86.507 -3.8254
76.608261 86.578 -3.9108
77.163399 86.650 -4.0213
77.722557 86.722 -4.1567
78.285767 86.794 -4.3168
78.853058 86.868 -4.5036
79.424461 86.942 -4.7179
80.000000 87.018 -4.9635
80.579712 87.094 -5.2438
81.163628 87.170 -5.5604
81.751770 87.246 -5.9156
82.344177 87.321 -6.3101
82.940880 87.394 -6.7443
83.541901 87.466 -7.2220
84.147285 87.538 -7.7464
84.757050 87.607 -8.3208
85.371231 87.672 -8.9509
85.989868 87.732 -9.6335
86.612984 87.785 -10.3687
87.240616 87.830 -11.1524
87.872803 87.867 -11.9833
88.509560 87.894 -12.8542
89.150940 87.908 -13.7619
89.796967 87.909 -14.6930
90.447670 87.895 -15.6373
91.103088 87.867 -16.5820
91.763260 87.824 -17.5156
92.428215 87.767 -18.4242
93.097992 87.694 -19.2945
93.772614 87.607 -20.1124
94.452133 87.507 -20.8620
95.136566 87.396 -21.5347
95.825966 87.275 -22.1187
96.520363 87.146 -22.6070
97.219788 87.011 -22.9885
97.924286 86.873 -23.2635
98.633881 86.737 -23.4266
99.348625 86.603 -23.4850
100.068542 86.476 -23.4392
100.793686 86.357 -23.3044
101.524078 86.252 -23.0901
102.259766 86.160 -22.8147
103.000778 86.084 -22.4939
103.747162 86.023 -22.1457
104.498962 85.980 -21.7872
105.256203 85.952 -21.4367
106.018929 85.940 -21.1146
106.787186 85.941 -20.8315
107.561012 85.952 -20.6035
108.340446 85.972 -20.4342
109.125526 85.998 -20.3331
109.916290 86.027 -20.2980
110.712791 86.057 -20.3326
111.515060 86.087 -20.4287
112.323143 86.113 -20.5819
113.137085 86.136 -20.7845
113.956924 86.154 -21.0295
114.782700 86.168 -21.3112
115.614464 86.176 -21.6240
116.452255 86.179 -21.9613
117.296112 86.176 -22.3164
118.146095 86.168 -22.6842
119.002228 86.155 -23.0585
119.864563 86.136 -23.4370
120.733154 86.113 -23.8161
121.608040 86.085 -24.1932
122.489258 86.053 -24.5652
123.376869 86.018 -24.9301
124.270905 85.979 -25.2847
125.171425 85.937 -25.6304
126.078468 85.895 -25.9673
126.992081 85.850 -26.2963
127.912323 85.802 -26.6184
128.839233 85.752 -26.9324
129.772842 85.700 -27.2370
130.713242 85.647 -27.5334
131.660431 85.593 -27.8224
132.614502 85.536 -28.1032
133.575485 85.477 -28.3760
134.543427 85.416 -28.6385
135.518387 85.353 -28.8874
136.500412 85.289 -29.1256
137.489548 85.226 -29.3545
138.485855 85.161 -29.5745
139.489380 85.094 -29.7865
140.500168 85.026 -29.9896
141.518295 84.958 -30.1827
142.543793 84.888 -30.3666
143.576721 84.817 -30.5417
144.617142 84.744 -30.7076
145.665100 84.672 -30.8640
146.720642 84.599 -31.0116
147.783844 84.524 -31.1516
148.854752 84.448 -31.2827
149.933411 84.371 -31.4042
151.019897 84.293 -31.5157
152.114243 84.215 -31.6162
153.216522 84.135 -31.7068
154.326797 84.054 -31.7885
155.445114 83.972 -31.8598
156.571533 83.889 -31.9198
157.706116 83.804 -31.9679
158.848923 83.719 -32.0036
160.000000 83.632 -32.0260
161.159424 83.544 -32.0345
162.327255 83.455 -32.0280
163.503540 83.366 -32.0056
164.688354 83.275 -31.9661
165.881760 83.184 -31.9085
167.083801 83.091 -31.8322
168.294571 82.998 -31.7360
169.514099 82.905 -31.6203
170.742462 82.813 -31.4851
171.979736 82.721 -31.3314
173.225967 82.630 -31.1601
174.481232 82.539 -30.9725
175.745605 82.450 -30.7696
177.019119 82.361 -30.5525
178.301880 82.273 -30.3228
179.593933 82.186 -30.0796
180.895340 82.099 -29.8235
182.206177 82.012 -29.5527
183.526520 81.925 -29.2665
184.856430 81.837 -28.9617
186.195984 81.749 -28.6352
187.545227 81.662 -28.2859
188.904266 81.576 -27.9112
190.273132 81.491 -27.5120
191.651932 81.408 -27.0877
193.040726 81.327 -26.6393
194.439575 81.250 -26.1656
195.848572 81.176 -25.6724
197.267761 81.108 -25.1636
198.697250 81.043 -24.6433
200.137085 80.983 -24.1169
201.587372 80.926 -23.5853
203.048157 80.873 -23.0508
204.519531 80.823 -22.5146
206.001556 80.777 -21.9793
207.494324 80.733 -21.4433
208.997925 80.690 -20.9063
210.512405 80.649 -20.3673
212.037857 80.612 -19.8247
213.574371 80.577 -19.2803
215.122025 80.544 -18.7358
216.680893 80.514 -18.1905
218.251053 80.486 -17.6429
219.832581 80.461 -17.0966
221.425583 80.440 -16.5545
223.030121 80.421 -16.0174
224.646286 80.403 -15.4885
226.274170 80.387 -14.9624
227.913849 80.371 -14.4333
229.565399 80.357 -13.9043
231.228928 80.347 -13.3768
232.904510 80.338 -12.8496
234.592224 80.330 -12.3219
236.292191 80.324 -11.7944
238.004456 80.322 -11.2653
239.729126 80.324 -10.7414
241.466309 80.330 -10.2294
243.216080 80.338 -9.7273
244.978516 80.346 -9.2352
246.753738 80.357 -8.7544
248.541809 80.371 -8.2858
250.342850 80.387 -7.8303
252.156937 80.403 -7.3901
253.984161 80.419 -6.9612
255.824646 80.436 -6.5396
257.678467 80.454 -6.1270
259.545685 80.474 -5.7233
261.426483 80.495 -5.3290
263.320862 80.516 -4.9444
265.229004 80.538 -4.5700
267.150970 80.561 -4.2064
269.086853 80.586 -3.8540
271.036774 80.611 -3.5134
273.000824 80.636 -3.1840
274.979095 80.662 -2.8652
276.971710 80.688 -2.5579
278.978760 80.715 -2.2635
281.000336 80.741 -1.9798
283.036591 80.766 -1.7054
285.087585 80.790 -1.4388
287.153442 80.814 -1.1779
289.234283 80.838 -0.9227
291.330200 80.861 -0.6718
293.441284 80.885 -0.4267
295.567688 80.910 -0.1879
297.709503 80.935 0.0434
299.866821 80.959 0.2653
302.039795 80.982 0.4804
304.228485 81.005 0.6909
306.433044 81.027 0.8954
308.653595 81.050 1.0923
310.890228 81.072 1.2845
313.143066 81.091 1.4731
315.412231 81.109 1.6615
317.697845 81.127 1.8542
320.000000 81.146 2.0484
322.318848 81.164 2.2428
324.654510 81.183 2.4374
327.007080 81.202 2.6326
329.376709 81.221 2.8264
331.763519 81.241 3.0172
334.167603 81.262 3.2044
336.589142 81.283 3.3865
339.028198 81.303 3.5645
341.484924 81.323 3.7385
343.959473 81.343 3.9095
346.451935 81.363 4.0783
348.962463 81.382 4.2455
351.491211 81.401 4.4128
354.038239 81.420 4.5785
356.603760 81.440 4.7416
359.187866 81.460 4.9025
361.790680 81.480 5.0611
364.412354 81.499 5.2186
367.053040 81.518 5.3767
369.712860 81.537 5.5335
372.391968 81.557 5.6880
375.090454 81.578 5.8396
377.808533 81.598 5.9873
380.546265 81.619 6.1316
383.303864 81.640 6.2718
386.081451 81.660 6.4096
388.879150 81.680 6.5469
391.697144 81.700 6.6816
394.535522 81.721 6.8121
397.394501 81.742 6.9386
400.274170 81.761 7.0599
403.174744 81.780 7.1786
406.096313 81.799 7.2974
409.039062 81.818 7.4146
412.003113 81.837 7.5288
414.988647 81.856 7.6416
417.995850 81.873 7.7541
421.024811 81.890 7.8666
424.075714 81.907 7.9808
427.148743 81.924 8.0946
430.244049 81.942 8.2059
433.361786 81.959 8.3166
436.502106 81.975 8.4290
439.665161 81.992 8.5407
442.851166 82.010 8.6500
446.060242 82.028 8.7567
449.292572 82.044 8.8592
452.548340 82.060 8.9597
455.827698 82.076 9.0606
459.130798 82.092 9.1597
462.457855 82.108 9.2542
465.809021 82.122 9.3487
469.184448 82.134 9.4466
472.584381 82.145 9.5487
476.008911 82.156 9.6579
479.458252 82.168 9.7716
482.932617 82.180 9.8878
486.432159 82.191 10.0076
489.957031 82.202 10.1309
493.507477 82.212 10.2596
497.083618 82.222 10.3954
500.685699 82.233 10.5385
504.313873 82.243 10.6900
507.968323 82.254 10.8485
511.649292 82.267 11.0130
515.356934 82.280 11.1834
519.091370 82.293 11.3595
522.852966 82.308 11.5414
526.641724 82.324 11.7303
530.458008 82.342 11.9224
534.301941 82.362 12.1146
538.173706 82.385 12.3054
542.073547 82.409 12.4916
546.001648 82.434 12.6744
549.958191 82.460 12.8544
553.943420 82.488 13.0294
557.957520 82.518 13.1972
562.000671 82.548 13.3585
566.073181 82.578 13.5125
570.175171 82.608 13.6615
574.306885 82.639 13.8079
578.468567 82.670 13.9505
582.660400 82.703 14.0894
586.882568 82.736 14.2235
591.135376 82.770 14.3518
595.419006 82.804 14.4746
599.733643 82.839 14.5927
604.079590 82.875 14.7036
608.456970 82.912 14.8051
612.866089 82.950 14.8967
617.307190 82.988 14.9764
621.780457 83.025 15.0468
626.286133 83.061 15.1090
630.824463 83.097 15.1658
635.395691 83.132 15.2206
640.000000 83.166 15.2728
644.637695 83.200 15.3231
649.309021 83.235 15.3708
654.014160 83.270 15.4166
658.753418 83.306 15.4579
663.527039 83.343 15.4933
668.335205 83.380 15.5199
673.178284 83.418 15.5336
678.056396 83.456 15.5360
682.969849 83.492 15.5267
687.918945 83.528 15.5081
692.903870 83.562 15.4826
697.924927 83.595 15.4501
702.982422 83.628 15.4107
708.076477 83.659 15.3662
713.207520 83.688 15.3181
718.375732 83.715 15.2682
723.581360 83.742 15.2196
728.824707 83.768 15.1692
734.106079 83.794 15.1143
739.425720 83.819 15.0562
744.783936 83.842 14.9950
750.180908 83.863 14.9322
755.617065 83.883 14.8689
761.092529 83.902 14.8062
766.607727 83.918 14.7448
772.162903 83.933 14.6882
777.758301 83.946 14.6401
783.394287 83.957 14.6011
789.071045 83.967 14.5729
794.789001 83.976 14.5560
800.548340 83.985 14.5522
806.349487 83.994 14.5600
812.192627 84.004 14.5787
818.078125 84.014 14.6079
824.006226 84.024 14.6476
829.977295 84.035 14.6958
835.991699 84.049 14.7514
842.049622 84.064 14.8118
848.151428 84.080 14.8735
854.297485 84.097 14.9388
860.488098 84.114 15.0095
866.723572 84.133 15.0827
873.004211 84.155 15.1570
879.330322 84.178 15.2297
885.702332 84.202 15.2976
892.120483 84.227 15.3618
898.585144 84.253 15.4232
905.096680 84.281 15.4788
911.655396 84.311 15.5254
918.261597 84.341 15.5639
924.915710 84.370 15.5930
931.618042 84.398 15.6159
938.368896 84.427 15.6366
945.168762 84.456 15.6520
952.017822 84.485 15.6590
958.916504 84.514 15.6610
965.865234 84.541 15.6585
972.864319 84.567 15.6560
979.914062 84.591 15.6588
