* Measurement data measured by REW V5.20.13
* Source: C:\Users\kurin\Desktop\Targets and Curves\Resolve\Img\Files\Aeon Open X_SPL.txt
* Format: Comma/Tab/Space delimited data
* Dated: Aug 14, 2023 6:51:24 PM
* REW Settings:
*  C-weighting compensation: Off
*  Target level: 75.0 dB
* Note: ; Measurement imported from C:\Users\kurin\Desktop\Targets and Curves\Resolve\Img\Files\Aeon Open X_SPL.txt Format: Comma/Tab/Space delimited data 623 values loaded, 5 Hz to 39,792 Hz log spaced 
* Measurement: Aeon Open X_SPL
* Smoothing: 1/48 octave
* Frequency Step: 1/96 octave
* Start Frequency: 5.000 Hz
*
* Freq(Hz) SPL(dB) Phase(degrees)
5.000000 84.287 20.5510
5.036232 84.294 20.5509
5.072727 84.301 20.5510
5.109486 84.309 20.5514
5.146511 84.318 20.5520
5.183805 84.329 20.5523
5.221369 84.341 20.5530
5.259205 84.353 20.5548
5.297316 84.366 20.5570
5.335702 84.380 20.5589
5.374367 84.394 20.5610
5.413311 84.408 20.5634
5.452538 84.422 20.5660
5.492050 84.436 20.5685
5.531847 84.450 20.5710
5.571934 84.464 20.5735
5.612310 84.479 20.5760
5.652979 84.493 20.5785
5.693943 84.507 20.5810
5.735204 84.521 20.5834
5.776763 84.535 20.5860
5.818624 84.549 20.5890
5.860788 84.563 20.5920
5.903258 84.577 20.5945
5.946035 84.591 20.5970
5.989123 84.605 20.5999
6.032523 84.619 20.6030
6.076237 84.633 20.6060
6.120268 84.647 20.6090
6.164618 84.661 20.6120
6.209289 84.676 20.6150
6.254284 84.690 20.6180
6.299605 84.704 20.6210
6.345255 84.718 20.6239
6.391235 84.732 20.6270
6.437549 84.746 20.6305
6.484198 84.760 20.6340
6.531185 84.774 20.6370
6.578513 84.788 20.6400
6.626183 84.802 20.6435
6.674199 84.816 20.6470
6.722563 84.830 20.6500
6.771278 84.844 20.6530
6.820345 84.858 20.6564
6.869768 84.873 20.6600
6.919549 84.887 20.6635
6.969691 84.901 20.6670
7.020196 84.915 20.6705
7.071068 84.929 20.6740
7.122308 84.943 20.6774
7.173919 84.957 20.6810
7.225904 84.971 20.6850
7.278266 84.985 20.6890
7.331007 84.999 20.6925
7.384131 85.013 20.6960
7.437639 85.027 20.7000
7.491535 85.041 20.7040
7.545822 85.055 20.7075
7.600502 85.070 20.7110
7.655579 85.084 20.7149
7.711054 85.098 20.7190
7.766932 85.112 20.7230
7.823214 85.126 20.7270
7.879904 85.140 20.7309
7.937005 85.154 20.7350
7.994520 85.168 20.7395
8.052452 85.182 20.7440
8.110803 85.196 20.7480
8.169578 85.210 20.7520
8.228777 85.224 20.7565
8.288406 85.238 20.7610
8.348468 85.252 20.7650
8.408964 85.267 20.7690
8.469899 85.281 20.7734
8.531276 85.295 20.7780
8.593097 85.309 20.7824
8.655366 85.323 20.7870
8.718086 85.337 20.7920
8.781260 85.351 20.7970
8.844893 85.365 20.8015
8.908987 85.379 20.8060
8.973545 85.393 20.8110
9.038571 85.407 20.8160
9.104069 85.421 20.8205
9.170040 85.435 20.8250
9.236490 85.449 20.8299
9.303422 85.464 20.8350
9.370838 85.478 20.8400
9.438744 85.492 20.8450
9.507140 85.506 20.8499
9.576033 85.520 20.8550
9.645425 85.534 20.8604
9.715320 85.548 20.8660
9.785721 85.562 20.8716
9.856632 85.576 20.8770
9.928058 85.590 20.8820
10.000000 85.604 20.8870
10.072464 85.618 20.8924
10.145453 85.632 20.8980
10.218971 85.646 20.9040
10.293022 85.661 20.9100
10.367610 85.675 20.9155
10.442738 85.689 20.9210
10.518411 85.703 20.9269
10.594631 85.717 20.9330
10.671404 85.731 20.9390
10.748734 85.745 20.9450
10.826623 85.759 20.9510
10.905077 85.773 20.9570
10.984100 85.787 20.9629
11.063695 85.801 20.9690
11.143867 85.815 20.9754
11.224621 85.830 20.9820
11.305959 85.844 20.9885
11.387886 85.858 20.9950
11.470407 85.872 21.0015
11.553527 85.886 21.0080
11.637249 85.900 21.0145
11.721577 85.914 21.0210
11.806517 85.928 21.0274
11.892071 85.942 21.0340
11.978246 85.956 21.0409
12.065045 85.970 21.0480
12.152473 85.984 21.0549
12.240536 85.998 21.0620
12.329235 86.012 21.0695
12.418578 86.027 21.0770
12.508568 86.041 21.0840
12.599211 86.055 21.0910
12.690510 86.069 21.0984
12.782471 86.083 21.1060
12.875097 86.097 21.1140
12.968395 86.111 21.1220
13.062370 86.125 21.1295
13.157025 86.139 21.1370
13.252366 86.153 21.1449
13.348398 86.167 21.1530
13.445127 86.181 21.1615
13.542556 86.195 21.1700
13.640691 86.209 21.1780
13.739536 86.224 21.1860
13.839099 86.238 21.1944
13.939383 86.252 21.2030
14.040393 86.266 21.2114
14.142136 86.280 21.2200
14.244616 86.294 21.2289
14.347837 86.308 21.2380
14.451808 86.322 21.2469
14.556532 86.336 21.2560
14.662014 86.350 21.2654
14.768262 86.364 21.2750
14.875278 86.378 21.2845
14.983070 86.392 21.2940
15.091644 86.406 21.3035
15.201005 86.421 21.3130
15.311157 86.435 21.3224
15.422109 86.449 21.3320
15.533863 86.463 21.3424
15.646428 86.477 21.3530
15.759809 86.491 21.3630
15.874010 86.505 21.3730
15.989040 86.519 21.3834
16.104904 86.533 21.3940
16.221605 86.547 21.4049
16.339155 86.561 21.4160
16.457554 86.575 21.4269
16.576813 86.589 21.4380
16.696936 86.603 21.4494
16.817928 86.618 21.4610
16.939798 86.632 21.4725
17.062551 86.646 21.4840
17.186193 86.660 21.4954
17.310732 86.674 21.5070
17.436172 86.688 21.5194
17.562521 86.702 21.5320
17.689787 86.716 21.5439
17.817974 86.730 21.5560
17.947090 86.744 21.5689
18.077143 86.758 21.5820
18.208138 86.772 21.5950
18.340080 86.786 21.6080
18.472980 86.800 21.6210
18.606844 86.815 21.6340
18.741676 86.829 21.6471
18.877487 86.843 21.6600
19.014280 86.857 21.6720
19.152065 86.871 21.6840
19.290850 86.885 21.6964
19.430639 86.898 21.7090
19.571442 86.912 21.7215
19.713264 86.925 21.7350
19.856115 86.938 21.7499
20.000000 86.950 21.7670
20.144928 86.963 21.7880
20.290907 86.976 21.8110
20.437943 86.990 21.8349
20.586044 87.005 21.8580
20.735220 87.020 21.8779
20.885475 87.035 21.8950
21.036821 87.050 21.9082
21.189262 87.064 21.9190
21.342808 87.077 21.9277
21.497467 87.089 21.9370
21.653246 87.099 21.9486
21.810154 87.109 21.9660
21.968201 87.118 21.9931
22.127390 87.126 22.0300
22.287735 87.134 22.0792
22.449242 87.144 22.1370
22.611917 87.156 22.2011
22.775772 87.169 22.2689
22.940815 87.183 22.3372
23.107054 87.198 22.4059
23.274498 87.214 22.4742
23.443153 87.232 22.5409
23.613033 87.250 22.6039
23.784142 87.269 22.6649
23.956491 87.287 22.7247
24.130091 87.305 22.7849
24.304947 87.324 22.8481
24.481071 87.343 22.9129
24.658470 87.363 22.9792
24.837156 87.384 23.0459
25.017136 87.406 23.1119
25.198421 87.428 23.1779
25.381020 87.451 23.2443
25.564941 87.476 23.3109
25.750195 87.501 23.3784
25.936790 87.528 23.4459
26.124741 87.556 23.5147
26.314051 87.587 23.5799
26.504732 87.621 23.6399
26.696796 87.658 23.6870
26.890253 87.699 23.7128
27.085112 87.741 23.7170
27.281382 87.782 23.6965
27.479073 87.824 23.6511
27.678198 87.867 23.5801
27.878765 87.908 23.4822
28.080786 87.947 23.3523
28.284271 87.982 23.2012
28.489231 88.010 23.0360
28.695675 88.033 22.8632
28.903616 88.053 22.6918
29.113064 88.069 22.5222
29.324028 88.081 22.3564
29.536524 88.090 22.1992
29.750557 88.095 22.0562
29.966141 88.097 21.9271
30.183289 88.099 21.8141
30.402010 88.101 21.7151
30.622314 88.101 21.6290
30.844217 88.101 21.5551
31.067726 88.101 21.4926
31.292856 88.101 21.4401
31.519617 88.101 21.3956
31.748020 88.101 21.3590
31.978081 88.101 21.3298
32.209808 88.101 21.3080
32.443211 88.101 21.2937
32.678310 88.101 21.2870
32.915108 88.102 21.2886
33.153625 88.103 21.2970
33.393871 88.105 21.3118
33.635857 88.109 21.3300
33.879597 88.114 21.3497
34.125103 88.121 21.3670
34.372387 88.129 21.3781
34.621464 88.138 21.3810
34.872345 88.147 21.3710
35.125042 88.155 21.3520
35.379574 88.160 21.3238
35.635948 88.162 21.2940
35.894180 88.161 21.2694
36.154285 88.157 21.2520
36.416275 88.152 21.2453
36.680161 88.146 21.2520
36.945961 88.137 21.2761
37.213688 88.127 21.3179
37.483353 88.118 21.3815
37.754974 88.111 21.4599
38.028561 88.107 21.5484
38.304131 88.104 21.6439
38.581699 88.102 21.7414
38.861279 88.101 21.8418
39.142883 88.101 21.9442
39.426529 88.101 22.0489
39.712231 88.101 22.1552
40.000000 88.101 22.2648
40.289856 88.101 22.3790
40.581814 88.101 22.4978
40.875885 88.101 22.6216
41.172089 88.101 22.7508
41.470440 88.101 22.8855
41.770950 88.101 23.0268
42.073643 88.101 23.1755
42.378525 88.101 23.3318
42.685616 88.101 23.4954
42.994934 88.101 23.6677
43.306492 88.101 23.8497
43.620308 88.101 24.0427
43.936401 88.101 24.2478
44.254780 88.101 24.4666
44.575470 88.102 24.7009
44.898483 88.103 24.9516
45.223835 88.106 25.2205
45.551544 88.110 25.5066
45.881630 88.116 25.8107
46.214108 88.126 26.1295
46.548996 88.140 26.4605
46.886307 88.157 26.8015
47.226067 88.177 27.1504
47.568283 88.201 27.5044
47.912983 88.229 27.8607
48.260181 88.260 28.2174
48.609894 88.295 28.5714
48.962143 88.333 28.9235
49.316940 88.373 29.2726
49.674313 88.416 29.6204
50.034271 88.461 29.9678
50.396843 88.509 30.3165
50.762039 88.559 30.6691
51.129883 88.614 31.0234
51.500389 88.674 31.3801
51.873581 88.740 31.7324
52.249481 88.813 32.0772
52.628101 88.893 32.4045
53.009464 88.980 32.7069
53.393593 89.075 32.9726
53.780506 89.176 33.1894
54.170223 89.282 33.3508
54.562763 89.391 33.4451
54.958145 89.499 33.4760
55.356396 89.603 33.4395
55.757530 89.702 33.3472
56.161572 89.794 33.2047
56.568542 89.878 33.0263
56.978462 89.953 32.8245
57.391350 90.021 32.6104
57.807232 90.080 32.3989
58.226128 90.134 32.1914
58.648056 90.184 31.9924
59.073048 90.229 31.8063
59.501114 90.267 31.6375
59.932281 90.302 31.4902
60.366577 90.335 31.3709
60.804020 90.367 31.2781
61.244629 90.397 31.2119
61.688435 90.427 31.1750
62.135452 90.457 31.1718
62.585712 90.489 31.1979
63.039234 90.526 31.2546
63.496040 90.569 31.3299
63.956161 90.619 31.4157
64.419617 90.676 31.5009
64.886421 90.740 31.5741
65.356621 90.809 31.6269
65.830215 90.883 31.6460
66.307251 90.959 31.6351
66.787743 91.034 31.5920
67.271713 91.109 31.5212
67.759193 91.184 31.4243
68.250206 91.258 31.3062
68.744774 91.328 31.1709
69.242928 91.397 31.0233
69.744690 91.465 30.8705
70.250084 91.533 30.7093
70.759148 91.602 30.5412
71.271896 91.672 30.3594
71.788361 91.743 30.1581
72.308571 91.815 29.9354
72.832550 91.885 29.6860
73.360321 91.953 29.4135
73.891922 92.017 29.1172
74.427376 92.078 28.8056
74.966705 92.133 28.4840
75.509949 92.183 28.1616
76.057121 92.228 27.8480
76.608261 92.270 27.5476
77.163399 92.309 27.2692
77.722557 92.349 27.0085
78.285767 92.391 26.7678
78.853058 92.435 26.5365
79.424461 92.483 26.3074
80.000000 92.535 26.0725
80.579712 92.590 25.8216
81.163628 92.646 25.5535
81.751770 92.702 25.2635
82.344177 92.758 24.9527
82.940880 92.813 24.6195
83.541901 92.867 24.2667
84.147285 92.918 23.8947
84.757050 92.967 23.5087
85.371231 93.012 23.1134
85.989868 93.054 22.7108
86.612984 93.094 22.3050
87.240616 93.132 21.8958
87.872803 93.168 21.4841
88.509560 93.203 21.0708
89.150940 93.235 20.6574
89.796967 93.266 20.2429
90.447670 93.297 19.8281
91.103088 93.327 19.4089
91.763260 93.357 18.9824
92.428215 93.387 18.5459
93.097992 93.415 18.0957
93.772614 93.442 17.6320
94.452133 93.466 17.1532
95.136566 93.487 16.6611
95.825966 93.504 16.1550
96.520363 93.517 15.6401
97.219788 93.524 15.1186
97.924286 93.526 14.5991
98.633881 93.520 14.0887
99.348625 93.509 13.5950
100.068542 93.492 13.1280
100.793686 93.472 12.6881
101.524078 93.449 12.2791
102.259766 93.424 11.9009
103.000778 93.398 11.5558
103.747162 93.372 11.2406
104.498962 93.347 10.9556
105.256203 93.325 10.6925
106.018929 93.307 10.4444
106.787186 93.290 10.2074
107.561012 93.274 9.9750
108.340446 93.259 9.7484
109.125526 93.245 9.5260
109.916290 93.232 9.3094
110.712791 93.218 9.0989
111.515060 93.204 8.8964
112.323143 93.190 8.7045
113.137085 93.177 8.5224
113.956924 93.165 8.3513
114.782700 93.154 8.1884
115.614464 93.146 8.0326
116.452255 93.139 7.8803
117.296112 93.135 7.7281
118.146095 93.132 7.5743
119.002228 93.130 7.4160
119.864563 93.129 7.2534
120.733154 93.128 7.0859
121.608040 93.128 6.9144
122.489258 93.128 6.7394
123.376869 93.128 6.5614
124.270905 93.128 6.3809
125.171425 93.128 6.1983
126.078468 93.128 6.0147
126.992081 93.128 5.8294
127.912323 93.128 5.6422
128.839233 93.128 5.4534
129.772842 93.128 5.2631
130.713242 93.128 5.0714
131.660431 93.128 4.8784
132.614502 93.128 4.6836
133.575485 93.128 4.4863
134.543427 93.128 4.2864
135.518387 93.128 4.0837
136.500412 93.128 3.8774
137.489548 93.128 3.6672
138.485855 93.128 3.4515
139.489380 93.128 3.2290
140.500168 93.127 2.9995
141.518295 93.125 2.7622
142.543793 93.122 2.5186
143.576721 93.116 2.2683
144.617142 93.108 2.0166
145.665100 93.096 1.7668
146.720642 93.081 1.5247
147.783844 93.063 1.2960
148.854752 93.043 1.0835
149.933411 93.021 0.8908
151.019897 92.998 0.7204
152.114243 92.974 0.5775
153.216522 92.952 0.4583
154.326797 92.933 0.3640
155.445114 92.918 0.2852
156.571533 92.909 0.2163
157.706116 92.904 0.1472
158.848923 92.905 0.0668
160.000000 92.909 -0.0287
161.159424 92.915 -0.1469
162.327255 92.923 -0.2887
163.503540 92.932 -0.4594
164.688354 92.939 -0.6536
165.881760 92.943 -0.8709
167.083801 92.944 -1.1014
168.294571 92.939 -1.3364
169.514099 92.931 -1.5714
170.742462 92.921 -1.7993
171.979736 92.908 -2.0194
173.225967 92.893 -2.2291
174.481232 92.877 -2.4276
175.745605 92.860 -2.6125
177.019119 92.842 -2.7856
178.301880 92.826 -2.9475
179.593933 92.810 -3.0996
180.895340 92.794 -3.2435
182.206177 92.779 -3.3797
183.526520 92.764 -3.5092
184.856430 92.751 -3.6327
186.195984 92.739 -3.7497
187.545227 92.729 -3.8647
188.904266 92.722 -3.9810
190.273132 92.716 -4.1027
191.651932 92.713 -4.2351
193.040726 92.710 -4.3786
194.439575 92.707 -4.5363
195.848572 92.703 -4.7055
197.267761 92.698 -4.8862
198.697250 92.691 -5.0725
200.137085 92.681 -5.2596
201.587372 92.669 -5.4446
203.048157 92.656 -5.6222
204.519531 92.642 -5.7945
206.001556 92.629 -5.9614
207.494324 92.616 -6.1236
208.997925 92.602 -6.2805
210.512405 92.589 -6.4356
212.037857 92.578 -6.5921
213.574371 92.567 -6.7506
215.122025 92.555 -6.9142
216.680893 92.542 -7.0786
218.251053 92.528 -7.2402
219.832581 92.514 -7.3995
221.425583 92.501 -7.5554
223.030121 92.487 -7.7086
224.646286 92.473 -7.8589
226.274170 92.459 -8.0076
227.913849 92.447 -8.1537
229.565399 92.437 -8.3036
231.228928 92.429 -8.4632
232.904510 92.421 -8.6335
234.592224 92.413 -8.8185
236.292191 92.403 -9.0155
238.004456 92.392 -9.2237
239.729126 92.379 -9.4404
241.466309 92.364 -9.6645
243.216080 92.346 -9.8904
244.978516 92.324 -10.1137
246.753738 92.299 -10.3294
248.541809 92.272 -10.5308
250.342850 92.243 -10.7185
252.156937 92.214 -10.8906
253.984161 92.185 -11.0476
255.824646 92.156 -11.1881
257.678467 92.127 -11.3157
259.545685 92.101 -11.4305
261.426483 92.078 -11.5417
263.320862 92.059 -11.6567
265.229004 92.043 -11.7806
267.150970 92.028 -11.9215
269.086853 92.014 -12.0775
271.036774 91.999 -12.2516
273.000824 91.982 -12.4384
274.979095 91.962 -12.6355
276.971710 91.939 -12.8374
278.978760 91.914 -13.0376
281.000336 91.887 -13.2365
283.036591 91.859 -13.4320
285.087585 91.829 -13.6244
287.153442 91.799 -13.8125
289.234283 91.767 -13.9985
291.330200 91.735 -14.1844
293.441284 91.702 -14.3695
295.567688 91.667 -14.5550
297.709503 91.630 -14.7365
299.866821 91.591 -14.9111
302.039795 91.549 -15.0765
304.228485 91.506 -15.2293
306.433044 91.462 -15.3696
308.653595 91.417 -15.4972
310.890228 91.372 -15.6107
313.143066 91.326 -15.7074
315.412231 91.280 -15.7918
317.697845 91.238 -15.8652
320.000000 91.197 -15.9348
322.318848 91.158 -16.0090
324.654510 91.120 -16.0848
327.007080 91.080 -16.1629
329.376709 91.039 -16.2398
331.763519 90.997 -16.3108
334.167603 90.955 -16.3788
336.589142 90.914 -16.4449
339.028198 90.873 -16.5098
341.484924 90.831 -16.5755
343.959473 90.789 -16.6398
346.451935 90.746 -16.7020
348.962463 90.701 -16.7598
351.491211 90.655 -16.8104
354.038239 90.609 -16.8559
356.603760 90.564 -16.8963
359.187866 90.518 -16.9349
361.790680 90.473 -16.9756
364.412354 90.426 -17.0159
367.053040 90.378 -17.0564
369.712860 90.327 -17.0919
372.391968 90.273 -17.1163
375.090454 90.218 -17.1320
377.808533 90.165 -17.1402
380.546265 90.110 -17.1390
383.303864 90.051 -17.1298
386.081451 89.989 -17.1041
388.879150 89.925 -17.0527
391.697144 89.861 -16.9793
394.535522 89.798 -16.8835
397.394501 89.736 -16.7684
400.274170 89.674 -16.6387
403.174744 89.612 -16.4885
406.096313 89.549 -16.3123
409.039062 89.486 -16.1137
412.003113 89.428 -15.8931
414.988647 89.372 -15.6538
417.995850 89.317 -15.3993
421.024811 89.265 -15.1289
424.075714 89.216 -14.8409
427.148743 89.170 -14.5410
430.244049 89.128 -14.2331
433.361786 89.090 -13.9210
436.502106 89.055 -13.6107
439.665161 89.023 -13.3000
442.851166 88.992 -12.9894
446.060242 88.962 -12.6770
449.292572 88.934 -12.3602
452.548340 88.909 -12.0410
455.827698 88.887 -11.7205
459.130798 88.867 -11.3990
462.457855 88.848 -11.0771
465.809021 88.832 -10.7560
469.184448 88.820 -10.4353
472.584381 88.811 -10.1210
476.008911 88.805 -9.8187
479.458252 88.802 -9.5289
482.932617 88.800 -9.2542
486.432159 88.799 -8.9928
489.957031 88.799 -8.7444
493.507477 88.799 -8.5077
497.083618 88.799 -8.2817
500.685699 88.799 -8.0647
504.313873 88.799 -7.8548
507.968323 88.799 -7.6516
511.649292 88.799 -7.4545
515.356934 88.799 -7.2626
519.091370 88.799 -7.0749
522.852966 88.799 -6.8916
526.641724 88.799 -6.7131
530.458008 88.799 -6.5386
534.301941 88.799 -6.3669
538.173706 88.799 -6.1986
542.073547 88.799 -6.0336
546.001648 88.799 -5.8716
549.958191 88.799 -5.7123
553.943420 88.799 -5.5555
557.957520 88.799 -5.4009
562.000671 88.799 -5.2485
566.073181 88.799 -5.0980
570.175171 88.799 -4.9495
574.306885 88.799 -4.8031
578.468567 88.799 -4.6585
582.660400 88.799 -4.5157
586.882568 88.799 -4.3745
591.135376 88.799 -4.2343
595.419006 88.799 -4.0955
599.733643 88.799 -3.9583
604.079590 88.799 -3.8225
608.456970 88.799 -3.6874
612.866089 88.799 -3.5534
617.307190 88.799 -3.4209
621.780457 88.799 -3.2894
626.286133 88.799 -3.1585
630.824463 88.799 -3.0284
635.395691 88.799 -2.8995
640.000000 88.799 -2.7714
644.637695 88.799 -2.6439
649.309021 88.799 -2.5174
654.014160 88.799 -2.3920
658.753418 88.799 -2.2684
663.527039 88.799 -2.1473
668.335205 88.799 -2.0284
673.178284 88.798 -1.9118
678.056396 88.797 -1.7964
682.969849 88.795 -1.6826
687.918945 88.791 -1.5664
692.903870 88.785 -1.4456
697.924927 88.778 -1.3145
702.982422 88.769 -1.1666
708.076477 88.760 -1.0016
713.207520 88.753 -0.8150
718.375732 88.748 -0.6137
723.581360 88.747 -0.4011
728.824707 88.750 -0.1848
734.106079 88.758 0.0290
739.425720 88.770 0.2323
744.783936 88.786 0.4163
750.180908 88.804 0.5775
755.617065 88.823 0.7065
761.092529 88.841 0.8117
766.607727 88.854 0.8937
772.162903 88.862 0.9667
777.758301 88.865 1.0443
783.394287 88.866 1.1297
789.071045 88.866 1.2303
794.789001 88.864 1.3475
800.548340 88.861 1.4866
806.349487 88.859 1.6434
812.192627 88.861 1.8192
818.078125 88.866 2.0033
824.006226 88.876 2.1882
829.977295 88.891 2.3664
835.991699 88.909 2.5291
842.049622 88.930 2.6735
848.151428 88.952 2.7928
854.297485 88.975 2.8907
860.488098 88.995 2.9673
866.723572 89.013 3.0268
873.004211 89.031 3.0725
879.330322 89.046 3.1069
885.702332 89.058 3.1314
892.120483 89.067 3.1529
898.585144 89.072 3.1783
905.096680 89.075 3.2089
911.655396 89.077 3.2488
918.261597 89.078 3.2968
924.915710 89.078 3.3533
931.618042 89.078 3.4178
938.368896 89.078 3.4896
945.168762 89.078 3.5687
952.017822 89.078 3.6550
958.916504 89.078 3.7476
965.865234 89.079 3.8461
972.864319 89.081 3.9496
979.914062 89.084 4.0587
987.014954 89.088 4.1686
994.167236 89.096 4.2765
1001.371399 89.105 4.3767
