* Measurement data measured by REW V5.20.13
* Source: C:\Users\kurin\Desktop\Targets and Curves\Resolve\Img\Lecram\Bose QC45_SPL.txt
* Format: Comma/Tab/Space delimited data
* Dated: Aug 15, 2023 3:22:58 PM
* REW Settings:
*  C-weighting compensation: Off
*  Target level: 75.0 dB
* Note: ; Measurement imported from C:\Users\kurin\Desktop\Targets and Curves\Resolve\Img\Lecram\Bose QC45_SPL.txt Format: Comma/Tab/Space delimited data 623 values loaded, 5 Hz to 39,792 Hz log spaced 
* Measurement: Bose QC45_SPL
* Smoothing: 1/48 octave
* Frequency Step: 1/96 octave
* Start Frequency: 5.000 Hz
*
* Freq(Hz) SPL(dB) Phase(degrees)
5.000000 90.041 16.2340
5.036232 90.047 16.2243
5.072727 90.053 16.2140
5.109486 90.060 16.2028
5.146511 90.069 16.1900
5.183805 90.079 16.1742
5.221369 90.090 16.1570
5.259205 90.102 16.1394
5.297316 90.114 16.1210
5.335702 90.127 16.1017
5.374367 90.140 16.0820
5.413311 90.153 16.0626
5.452538 90.166 16.0430
5.492050 90.179 16.0231
5.531847 90.192 16.0030
5.571934 90.205 15.9825
5.612310 90.218 15.9620
5.652979 90.231 15.9421
5.693943 90.244 15.9220
5.735204 90.257 15.9011
5.776763 90.270 15.8800
5.818624 90.283 15.8590
5.860788 90.296 15.8380
5.903258 90.309 15.8171
5.946035 90.323 15.7960
5.989123 90.336 15.7741
6.032523 90.349 15.7520
6.076237 90.362 15.7300
6.120268 90.375 15.7080
6.164618 90.388 15.6861
6.209289 90.401 15.6640
6.254284 90.414 15.6416
6.299605 90.427 15.6190
6.345255 90.440 15.5961
6.391235 90.453 15.5730
6.437549 90.466 15.5501
6.484198 90.479 15.5270
6.531185 90.492 15.5036
6.578513 90.505 15.4800
6.626183 90.518 15.4561
6.674199 90.531 15.4320
6.722563 90.544 15.4076
6.771278 90.558 15.3830
6.820345 90.571 15.3586
6.869768 90.584 15.3340
6.919549 90.597 15.3091
6.969691 90.610 15.2840
7.020196 90.623 15.2591
7.071068 90.636 15.2340
7.122308 90.649 15.2081
7.173919 90.662 15.1820
7.225904 90.675 15.1561
7.278266 90.688 15.1300
7.331007 90.701 15.1036
7.384131 90.714 15.0770
7.437639 90.727 15.0506
7.491535 90.740 15.0240
7.545822 90.753 14.9966
7.600502 90.766 14.9690
7.655579 90.779 14.9416
7.711054 90.793 14.9140
7.766932 90.806 14.8861
7.823214 90.819 14.8580
7.879904 90.832 14.8296
7.937005 90.845 14.8010
7.994520 90.858 14.7721
8.052452 90.871 14.7430
8.110803 90.884 14.7141
8.169578 90.897 14.6850
8.228777 90.910 14.6551
8.288406 90.923 14.6250
8.348468 90.936 14.5951
8.408964 90.949 14.5650
8.469899 90.962 14.5346
8.531276 90.975 14.5040
8.593097 90.988 14.4732
8.655366 91.001 14.4420
8.718086 91.014 14.4101
8.781260 91.028 14.3780
8.844893 91.041 14.3461
8.908987 91.054 14.3140
8.973545 91.067 14.2816
9.038571 91.080 14.2490
9.104069 91.093 14.2161
9.170040 91.106 14.1830
9.236490 91.119 14.1496
9.303422 91.132 14.1160
9.370838 91.145 14.0821
9.438744 91.158 14.0480
9.507140 91.171 14.0136
9.576033 91.184 13.9790
9.645425 91.197 13.9441
9.715320 91.210 13.9090
9.785721 91.223 13.8736
9.856632 91.236 13.8380
9.928058 91.249 13.8021
10.000000 91.263 13.7660
10.072464 91.276 13.7297
10.145453 91.289 13.6930
10.218971 91.302 13.6557
10.293022 91.315 13.6180
10.367610 91.328 13.5801
10.442738 91.341 13.5420
10.518411 91.354 13.5041
10.594631 91.367 13.4660
10.671404 91.380 13.4272
10.748734 91.393 13.3880
10.826623 91.406 13.3487
10.905077 91.419 13.3090
10.984100 91.432 13.2687
11.063695 91.445 13.2280
11.143867 91.458 13.1876
11.224621 91.471 13.1470
11.305959 91.484 13.1057
11.387886 91.498 13.0640
11.470407 91.511 13.0222
11.553527 91.524 12.9800
11.637249 91.537 12.9372
11.721577 91.550 12.8940
11.806517 91.563 12.8507
11.892071 91.576 12.8070
11.978246 91.589 12.7632
12.065045 91.602 12.7190
12.152473 91.615 12.6742
12.240536 91.628 12.6290
12.329235 91.641 12.5837
12.418578 91.654 12.5380
12.508568 91.667 12.4922
12.599211 91.680 12.4460
12.690510 91.693 12.3993
12.782471 91.706 12.3520
12.875097 91.719 12.3042
12.968395 91.733 12.2560
13.062370 91.746 12.2077
13.157025 91.759 12.1590
13.252366 91.772 12.1102
13.348398 91.785 12.0610
13.445127 91.798 12.0113
13.542556 91.811 11.9611
13.640691 91.824 11.9103
13.739536 91.837 11.8590
13.839099 91.850 11.8072
13.939383 91.863 11.7550
14.040393 91.876 11.7027
14.142136 91.889 11.6500
14.244616 91.902 11.5968
14.347837 91.915 11.5430
14.451808 91.928 11.4888
14.556532 91.941 11.4340
14.662014 91.954 11.3788
14.768262 91.968 11.3231
14.875278 91.981 11.2668
14.983070 91.994 11.2101
15.091644 92.007 11.1528
15.201005 92.020 11.0950
15.311157 92.033 11.0368
15.422109 92.046 10.9780
15.533863 92.059 10.9188
15.646428 92.072 10.8590
15.759809 92.085 10.7989
15.874010 92.098 10.7380
15.989040 92.111 10.6764
16.104904 92.124 10.6140
16.221605 92.137 10.5514
16.339155 92.150 10.4881
16.457554 92.163 10.4239
16.576813 92.176 10.3590
16.696936 92.189 10.2939
16.817928 92.203 10.2280
16.939798 92.216 10.1614
17.062551 92.229 10.0941
17.186193 92.242 10.0259
17.310732 92.255 9.9570
17.436172 92.268 9.8875
17.562521 92.281 9.8171
17.689787 92.294 9.7455
17.817974 92.307 9.6731
17.947090 92.320 9.6001
18.077143 92.333 9.5260
18.208138 92.346 9.4507
18.340080 92.359 9.3741
18.472980 92.372 9.2963
18.606844 92.385 9.2170
18.741676 92.398 9.1366
18.877487 92.411 9.0541
19.014280 92.424 8.9690
19.152065 92.437 8.8811
19.290850 92.450 8.7902
19.430639 92.463 8.6961
19.571442 92.475 8.5982
19.713264 92.487 8.4971
19.856115 92.498 8.3924
20.000000 92.508 8.2861
20.144928 92.516 8.1795
20.290907 92.523 8.0741
20.437943 92.529 7.9713
20.586044 92.534 7.8731
20.735220 92.537 7.7808
20.885475 92.539 7.6971
21.036821 92.540 7.6248
21.189262 92.541 7.5641
21.342808 92.542 7.5163
21.497467 92.544 7.4810
21.653246 92.546 7.4593
21.810154 92.550 7.4480
21.968201 92.557 7.4464
22.127390 92.566 7.4490
22.287735 92.579 7.4510
22.449242 92.594 7.4500
22.611917 92.610 7.4417
22.775772 92.628 7.4270
22.940815 92.646 7.4059
23.107054 92.666 7.3770
23.274498 92.687 7.3391
23.443153 92.709 7.2921
23.613033 92.730 7.2343
23.784142 92.751 7.1691
23.956491 92.771 7.0989
24.130091 92.791 7.0251
24.304947 92.810 6.9505
24.481071 92.829 6.8731
24.658470 92.850 6.7916
24.837156 92.870 6.7071
25.017136 92.889 6.6193
25.198421 92.907 6.5311
25.381020 92.925 6.4463
25.564941 92.944 6.3621
25.750195 92.964 6.2777
25.936790 92.985 6.1911
26.124741 93.007 6.1007
26.314051 93.029 6.0051
26.504732 93.053 5.9030
26.696796 93.077 5.7931
26.890253 93.101 5.6723
27.085112 93.124 5.5451
27.281382 93.146 5.4151
27.479073 93.167 5.2822
27.678198 93.189 5.1484
27.878765 93.211 5.0112
28.080786 93.234 4.8675
28.284271 93.256 4.7202
28.489231 93.277 4.5720
28.695675 93.298 4.4212
28.903616 93.321 4.2678
29.113064 93.344 4.1092
29.324028 93.367 3.9427
29.536524 93.390 3.7692
29.750557 93.413 3.5881
29.966141 93.435 3.4012
30.183289 93.457 3.2106
30.402010 93.478 3.0152
30.622314 93.500 2.8149
30.844217 93.522 2.6092
31.067726 93.544 2.3980
31.292856 93.565 2.1803
31.519617 93.587 1.9552
31.748020 93.608 1.7223
31.978081 93.629 1.4813
32.209808 93.650 1.2313
32.443211 93.670 0.9715
32.678310 93.690 0.7014
32.915108 93.709 0.4194
33.153625 93.727 0.1274
33.393871 93.743 -0.1745
33.635857 93.756 -0.4835
33.879597 93.767 -0.7974
34.125103 93.776 -1.1146
34.372387 93.783 -1.4336
34.621464 93.789 -1.7525
34.872345 93.792 -2.0690
35.125042 93.794 -2.3826
35.379574 93.795 -2.6914
35.635948 93.796 -2.9976
35.894180 93.796 -3.3023
36.154285 93.796 -3.6076
36.416275 93.796 -3.9150
36.680161 93.795 -4.2265
36.945961 93.794 -4.5445
37.213688 93.792 -4.8685
37.483353 93.788 -5.1996
37.754974 93.782 -5.5355
38.028561 93.774 -5.8753
38.304131 93.764 -6.2165
38.581699 93.751 -6.5572
38.861279 93.735 -6.8945
39.142883 93.717 -7.2251
39.426529 93.697 -7.5486
39.712231 93.675 -7.8641
40.000000 93.651 -8.1696
40.289856 93.625 -8.4623
40.581814 93.598 -8.7436
40.875885 93.572 -9.0123
41.172089 93.545 -9.2726
41.470440 93.519 -9.5297
41.770950 93.491 -9.7796
42.073643 93.461 -10.0194
42.378525 93.430 -10.2507
42.685616 93.401 -10.4734
42.994934 93.372 -10.6887
43.306492 93.342 -10.8989
43.620308 93.311 -11.1007
43.936401 93.279 -11.2908
44.254780 93.247 -11.4707
44.575470 93.216 -11.6399
44.898483 93.186 -11.8007
45.223835 93.156 -11.9551
45.551544 93.127 -12.1038
45.881630 93.099 -12.2474
46.214108 93.072 -12.3888
46.548996 93.047 -12.5307
46.886307 93.023 -12.6748
47.226067 92.999 -12.8241
47.568283 92.974 -12.9767
47.912983 92.949 -13.1319
48.260181 92.923 -13.2887
48.609894 92.897 -13.4464
48.962143 92.870 -13.6048
49.316940 92.842 -13.7644
49.674313 92.812 -13.9218
50.034271 92.781 -14.0736
50.396843 92.748 -14.2198
50.762039 92.715 -14.3587
51.129883 92.682 -14.4908
51.500389 92.647 -14.6169
51.873581 92.611 -14.7338
52.249481 92.574 -14.8383
52.628101 92.537 -14.9309
53.009464 92.500 -15.0108
53.393593 92.463 -15.0789
53.780506 92.428 -15.1345
54.170223 92.393 -15.1809
54.562763 92.360 -15.2212
54.958145 92.327 -15.2550
55.356396 92.295 -15.2825
55.757530 92.263 -15.3050
56.161572 92.234 -15.3228
56.568542 92.205 -15.3380
56.978462 92.177 -15.3537
57.391350 92.149 -15.3660
57.807232 92.120 -15.3719
58.226128 92.091 -15.3710
58.648056 92.064 -15.3605
59.073048 92.038 -15.3440
59.501114 92.014 -15.3253
59.932281 91.990 -15.3020
60.366577 91.966 -15.2718
60.804020 91.944 -15.2381
61.244629 91.925 -15.2032
61.688435 91.908 -15.1681
62.135452 91.891 -15.1352
62.585712 91.875 -15.1021
63.039234 91.860 -15.0656
63.496040 91.846 -15.0291
63.956161 91.835 -14.9947
64.419617 91.825 -14.9631
64.886421 91.815 -14.9354
65.356621 91.807 -14.9110
65.830215 91.801 -14.8888
66.307251 91.796 -14.8720
66.787743 91.793 -14.8636
67.271713 91.791 -14.8640
67.759193 91.790 -14.8745
68.250206 91.789 -14.8950
68.744774 91.789 -14.9257
69.242928 91.789 -14.9659
69.744690 91.789 -15.0149
70.250084 91.789 -15.0729
70.759148 91.789 -15.1399
71.271896 91.789 -15.2159
71.788361 91.789 -15.3006
72.308571 91.789 -15.3948
72.832550 91.788 -15.4994
73.360321 91.786 -15.6138
73.891922 91.784 -15.7387
74.427376 91.780 -15.8717
74.966705 91.774 -16.0118
75.509949 91.766 -16.1557
76.057121 91.757 -16.3004
76.608261 91.746 -16.4447
77.163399 91.733 -16.5876
77.722557 91.718 -16.7267
78.285767 91.703 -16.8581
78.853058 91.687 -16.9847
79.424461 91.672 -17.1073
80.000000 91.658 -17.2288
80.579712 91.643 -17.3526
81.163628 91.628 -17.4778
81.751770 91.613 -17.6044
82.344177 91.597 -17.7327
82.940880 91.581 -17.8636
83.541901 91.565 -17.9957
84.147285 91.547 -18.1282
84.757050 91.528 -18.2607
85.371231 91.509 -18.3925
85.989868 91.490 -18.5237
86.612984 91.470 -18.6549
87.240616 91.449 -18.7847
87.872803 91.427 -18.9118
88.509560 91.405 -19.0377
89.150940 91.383 -19.1637
89.796967 91.361 -19.2897
90.447670 91.337 -19.4174
91.103088 91.312 -19.5427
91.763260 91.285 -19.6625
92.428215 91.258 -19.7768
93.097992 91.231 -19.8833
93.772614 91.204 -19.9858
94.452133 91.178 -20.0885
95.136566 91.151 -20.1878
95.825966 91.122 -20.2811
96.520363 91.092 -20.3698
97.219788 91.065 -20.4532
97.924286 91.038 -20.5348
98.633881 91.011 -20.6195
99.348625 90.984 -20.7028
100.068542 90.955 -20.7814
100.793686 90.926 -20.8568
101.524078 90.898 -20.9286
102.259766 90.871 -20.9998
103.000778 90.843 -21.0750
103.747162 90.815 -21.1499
104.498962 90.785 -21.2212
105.256203 90.755 -21.2899
106.018929 90.726 -21.3550
106.787186 90.696 -21.4179
107.561012 90.665 -21.4809
108.340446 90.634 -21.5399
109.125526 90.601 -21.5910
109.916290 90.568 -21.6359
110.712791 90.536 -21.6750
111.515060 90.504 -21.7079
112.323143 90.471 -21.7348
113.137085 90.438 -21.7550
113.956924 90.407 -21.7664
114.782700 90.376 -21.7730
115.614464 90.347 -21.7786
116.452255 90.318 -21.7810
117.296112 90.289 -21.7785
118.146095 90.260 -21.7730
119.002228 90.234 -21.7644
119.864563 90.209 -21.7570
120.733154 90.185 -21.7558
121.608040 90.162 -21.7590
122.489258 90.139 -21.7665
123.376869 90.116 -21.7780
124.270905 90.093 -21.7925
125.171425 90.070 -21.8110
126.078468 90.047 -21.8344
126.992081 90.024 -21.8619
127.912323 90.000 -21.8941
128.839233 89.975 -21.9269
129.772842 89.948 -21.9564
130.713242 89.920 -21.9829
131.660431 89.893 -22.0044
132.614502 89.866 -22.0239
133.575485 89.839 -22.0455
134.543427 89.812 -22.0650
135.518387 89.783 -22.0790
136.500412 89.754 -22.0890
137.489548 89.727 -22.0941
138.485855 89.701 -22.0980
139.489380 89.674 -22.1052
140.500168 89.647 -22.1120
141.518295 89.619 -22.1156
142.543793 89.592 -22.1180
143.576721 89.567 -22.1198
144.617142 89.542 -22.1230
145.665100 89.516 -22.1304
146.720642 89.490 -22.1400
147.783844 89.464 -22.1501
148.854752 89.437 -22.1620
149.933411 89.411 -22.1768
151.019897 89.385 -22.1930
152.114243 89.357 -22.2101
153.216522 89.327 -22.2260
154.326797 89.297 -22.2378
155.445114 89.267 -22.2470
156.571533 89.238 -22.2538
157.706116 89.208 -22.2590
158.848923 89.177 -22.2643
160.000000 89.146 -22.2670
161.159424 89.114 -22.2645
162.327255 89.081 -22.2580
163.503540 89.049 -22.2480
164.688354 89.016 -22.2340
165.881760 88.983 -22.2161
167.083801 88.949 -22.1931
168.294571 88.915 -22.1635
169.514099 88.881 -22.1281
170.742462 88.848 -22.0875
171.979736 88.815 -22.0411
173.225967 88.782 -21.9882
174.481232 88.749 -21.9301
175.745605 88.718 -21.8674
177.019119 88.687 -21.8022
178.301880 88.658 -21.7373
179.593933 88.629 -21.6712
180.895340 88.600 -21.6028
182.206177 88.571 -21.5332
183.526520 88.544 -21.4620
184.856430 88.518 -21.3922
186.195984 88.492 -21.3275
187.545227 88.467 -21.2651
188.904266 88.441 -21.2036
190.273132 88.415 -21.1431
191.651932 88.390 -21.0824
193.040726 88.365 -21.0252
194.439575 88.342 -20.9754
195.848572 88.319 -20.9311
197.267761 88.293 -20.8927
198.697250 88.266 -20.8561
200.137085 88.239 -20.8168
201.587372 88.211 -20.7771
203.048157 88.183 -20.7387
204.519531 88.154 -20.6981
206.001556 88.122 -20.6524
207.494324 88.090 -20.6011
208.997925 88.059 -20.5418
210.512405 88.028 -20.4782
212.037857 87.998 -20.4134
213.574371 87.968 -20.3472
215.122025 87.937 -20.2805
216.680893 87.906 -20.2122
218.251053 87.875 -20.1418
219.832581 87.843 -20.0682
221.425583 87.810 -19.9909
223.030121 87.777 -19.9072
224.646286 87.743 -19.8134
226.274170 87.709 -19.7123
227.913849 87.677 -19.6055
229.565399 87.645 -19.4933
231.228928 87.613 -19.3756
232.904510 87.582 -19.2544
234.592224 87.554 -19.1301
236.292191 87.526 -19.0063
238.004456 87.499 -18.8882
239.729126 87.471 -18.7713
241.466309 87.442 -18.6527
243.216080 87.413 -18.5323
244.978516 87.386 -18.4080
246.753738 87.359 -18.2834
248.541809 87.332 -18.1627
250.342850 87.304 -18.0413
252.156937 87.275 -17.9155
253.984161 87.246 -17.7864
255.824646 87.218 -17.6526
257.678467 87.191 -17.5173
259.545685 87.164 -17.3848
261.426483 87.137 -17.2503
263.320862 87.108 -17.1106
265.229004 87.078 -16.9664
267.150970 87.051 -16.8168
269.086853 87.024 -16.6644
271.036774 86.997 -16.5133
273.000824 86.970 -16.3585
274.979095 86.941 -16.1955
276.971710 86.912 -16.0265
278.978760 86.886 -15.8509
281.000336 86.861 -15.6725
283.036591 86.837 -15.4952
285.087585 86.813 -15.3175
287.153442 86.789 -15.1394
289.234283 86.765 -14.9605
291.330200 86.742 -14.7800
293.441284 86.720 -14.5995
295.567688 86.698 -14.4210
297.709503 86.676 -14.2425
299.866821 86.653 -14.0638
302.039795 86.630 -13.8815
304.228485 86.606 -13.6918
306.433044 86.582 -13.4956
308.653595 86.559 -13.2920
310.890228 86.537 -13.0836
313.143066 86.516 -12.8719
315.412231 86.497 -12.6586
317.697845 86.479 -12.4456
320.000000 86.462 -12.2336
322.318848 86.445 -12.0246
324.654510 86.428 -11.8167
327.007080 86.411 -11.6090
329.376709 86.394 -11.4007
331.763519 86.377 -11.1904
334.167603 86.361 -10.9777
336.589142 86.344 -10.7614
339.028198 86.328 -10.5416
341.484924 86.312 -10.3170
343.959473 86.298 -10.0906
346.451935 86.286 -9.8650
348.962463 86.274 -9.6406
351.491211 86.262 -9.4191
354.038239 86.251 -9.1996
356.603760 86.240 -8.9820
359.187866 86.230 -8.7667
361.790680 86.220 -8.5552
364.412354 86.209 -8.3436
367.053040 86.196 -8.1292
369.712860 86.183 -7.9097
372.391968 86.170 -7.6812
375.090454 86.158 -7.4467
377.808533 86.148 -7.2076
380.546265 86.139 -6.9647
383.303864 86.130 -6.7191
386.081451 86.122 -6.4707
388.879150 86.115 -6.2188
391.697144 86.110 -5.9668
394.535522 86.107 -5.7179
397.394501 86.106 -5.4727
400.274170 86.105 -5.2335
403.174744 86.104 -4.9987
406.096313 86.104 -4.7678
409.039062 86.104 -4.5407
412.003113 86.104 -4.3175
414.988647 86.104 -4.0967
417.995850 86.104 -3.8773
421.024811 86.104 -3.6587
424.075714 86.104 -3.4406
427.148743 86.104 -3.2217
430.244049 86.104 -3.0008
433.361786 86.104 -2.7777
436.502106 86.105 -2.5521
439.665161 86.106 -2.3237
442.851166 86.107 -2.0915
446.060242 86.110 -1.8577
449.292572 86.115 -1.6235
452.548340 86.122 -1.3917
455.827698 86.130 -1.1659
459.130798 86.138 -0.9447
462.457855 86.147 -0.7279
465.809021 86.156 -0.5157
469.184448 86.166 -0.3075
472.584381 86.176 -0.1046
476.008911 86.187 0.0916
479.458252 86.199 0.2824
482.932617 86.210 0.4684
486.432159 86.221 0.6504
489.957031 86.232 0.8307
493.507477 86.244 1.0065
497.083618 86.257 1.1766
500.685699 86.271 1.3385
504.313873 86.285 1.4880
507.968323 86.298 1.6286
511.649292 86.309 1.7617
515.356934 86.319 1.8896
519.091370 86.329 2.0149
522.852966 86.337 2.1376
526.641724 86.343 2.2570
530.458008 86.348 2.3776
534.301941 86.351 2.5036
538.173706 86.353 2.6355
542.073547 86.354 2.7750
546.001648 86.355 2.9225
549.958191 86.355 3.0790
553.943420 86.355 3.2444
557.957520 86.356 3.4196
562.000671 86.357 3.6034
566.073181 86.358 3.7954
570.175171 86.361 3.9943
574.306885 86.366 4.1998
578.468567 86.373 4.4083
582.660400 86.381 4.6157
586.882568 86.391 4.8233
591.135376 86.400 5.0318
595.419006 86.411 5.2393
599.733643 86.425 5.4447
604.079590 86.440 5.6463
608.456970 86.455 5.8409
612.866089 86.471 6.0324
617.307190 86.487 6.2240
621.780457 86.503 6.4144
626.286133 86.521 6.6043
630.824463 86.541 6.7904
635.395691 86.562 6.9703
640.000000 86.585 7.1424
644.637695 86.610 7.3053
649.309021 86.637 7.4555
654.014160 86.664 7.5889
658.753418 86.691 7.7066
663.527039 86.717 7.8078
668.335205 86.743 7.8937
673.178284 86.768 7.9638
678.056396 86.791 8.0228
682.969849 86.810 8.0742
687.918945 86.828 8.1208
692.903870 86.845 8.1672
697.924927 86.860 8.2118
702.982422 86.874 8.2544
708.076477 86.886 8.2968
713.207520 86.896 8.3412
718.375732 86.905 8.3868
723.581360 86.914 8.4343
728.824707 86.922 8.4828
734.106079 86.928 8.5308
739.425720 86.933 8.5818
744.783936 86.936 8.6390
750.180908 86.938 8.7028
755.617065 86.939 8.7749
761.092529 86.940 8.8547
766.607727 86.940 8.9420
772.162903 86.940 9.0366
777.758301 86.940 9.1386
783.394287 86.940 9.2476
789.071045 86.940 9.3638
794.789001 86.940 9.4866
800.548340 86.940 9.6155
806.349487 86.941 9.7505
812.192627 86.942 9.8920
818.078125 86.945 10.0375
824.006226 86.949 10.1857
829.977295 86.955 10.3325
835.991699 86.962 10.4731
842.049622 86.970 10.6075
848.151428 86.977 10.7338
854.297485 86.984 10.8526
860.488098 86.991 10.9630
866.723572 86.996 11.0676
873.004211 86.998 11.1660
879.330322 86.997 11.2656
885.702332 86.992 11.3730
892.120483 86.985 11.4906
898.585144 86.976 11.6221
905.096680 86.966 11.7694
911.655396 86.953 11.9349
918.261597 86.939 12.1213
924.915710 86.925 12.3336
931.618042 86.912 12.5671
938.368896 86.901 12.8194
945.168762 86.891 13.0890
952.017822 86.882 13.3734
958.916504 86.874 13.6738
965.865234 86.868 13.9918
972.864319 86.864 14.3237
