* Measurement data measured by REW V5.20.13
* Source: C:\Users\kurin\Desktop\Targets and Curves\Resolve\Img\Files\Edition XS Gras_SPL.txt
* Format: Comma/Tab/Space delimited data
* Dated: Aug 14, 2023 6:53:14 PM
* REW Settings:
*  C-weighting compensation: Off
*  Target level: 75.0 dB
* Note: ; Measurement imported from C:\Users\kurin\Desktop\Targets and Curves\Resolve\Img\Files\Edition XS Gras_SPL.txt Format: Comma/Tab/Space delimited data 623 values loaded, 5 Hz to 39,792 Hz log spaced 
* Measurement: Edition XS Gras_SPL
* Smoothing: 1/48 octave
* Frequency Step: 1/96 octave
* Start Frequency: 5.000 Hz
*
* Freq(Hz) SPL(dB) Phase(degrees)
5.000000 83.798 17.2470
5.036232 83.804 17.2421
5.072727 83.810 17.2370
5.109486 83.817 17.2314
5.146511 83.825 17.2250
5.183805 83.835 17.2173
5.221369 83.846 17.2090
5.259205 83.857 17.2006
5.297316 83.869 17.1920
5.335702 83.882 17.1831
5.374367 83.895 17.1740
5.413311 83.908 17.1650
5.452538 83.921 17.1560
5.492050 83.933 17.1471
5.531847 83.946 17.1380
5.571934 83.959 17.1285
5.612310 83.972 17.1190
5.652979 83.984 17.1100
5.693943 83.997 17.1010
5.735204 84.010 17.0916
5.776763 84.023 17.0820
5.818624 84.036 17.0726
5.860788 84.049 17.0630
5.903258 84.062 17.0530
5.946035 84.074 17.0430
5.989123 84.087 17.0335
6.032523 84.100 17.0240
6.076237 84.112 17.0141
6.120268 84.125 17.0040
6.164618 84.138 16.9941
6.209289 84.151 16.9840
6.254284 84.164 16.9736
6.299605 84.177 16.9630
6.345255 84.189 16.9525
6.391235 84.202 16.9420
6.437549 84.215 16.9315
6.484198 84.228 16.9210
6.531185 84.240 16.9106
6.578513 84.253 16.9000
6.626183 84.266 16.8891
6.674199 84.279 16.8780
6.722563 84.292 16.8670
6.771278 84.305 16.8560
6.820345 84.317 16.8450
6.869768 84.330 16.8340
6.919549 84.343 16.8231
6.969691 84.356 16.8120
7.020196 84.368 16.8006
7.071068 84.381 16.7890
7.122308 84.394 16.7770
7.173919 84.407 16.7650
7.225904 84.420 16.7535
7.278266 84.433 16.7420
7.331007 84.445 16.7301
7.384131 84.458 16.7180
7.437639 84.471 16.7061
7.491535 84.484 16.6940
7.545822 84.496 16.6816
7.600502 84.509 16.6690
7.655579 84.522 16.6565
7.711054 84.535 16.6440
7.766932 84.548 16.6316
7.823214 84.561 16.6190
7.879904 84.573 16.6061
7.937005 84.586 16.5930
7.994520 84.599 16.5800
8.052452 84.612 16.5670
8.110803 84.624 16.5541
8.169578 84.637 16.5410
8.228777 84.650 16.5276
8.288406 84.663 16.5140
8.348468 84.676 16.5006
8.408964 84.689 16.4870
8.469899 84.701 16.4731
8.531276 84.714 16.4590
8.593097 84.727 16.4451
8.655366 84.740 16.4310
8.718086 84.752 16.4165
8.781260 84.765 16.4020
8.844893 84.778 16.3881
8.908987 84.791 16.3740
8.973545 84.804 16.3591
9.038571 84.817 16.3440
9.104069 84.829 16.3290
9.170040 84.842 16.3140
9.236490 84.855 16.2991
9.303422 84.868 16.2840
9.370838 84.880 16.2686
9.438744 84.893 16.2530
9.507140 84.906 16.2375
9.576033 84.919 16.2220
9.645425 84.932 16.2066
9.715320 84.945 16.1910
9.785721 84.957 16.1751
9.856632 84.970 16.1590
9.928058 84.983 16.1426
10.000000 84.996 16.1260
10.072464 85.008 16.1096
10.145453 85.021 16.0930
10.218971 85.034 16.0761
10.293022 85.047 16.0590
10.367610 85.060 16.0420
10.442738 85.073 16.0250
10.518411 85.085 16.0081
10.594631 85.098 15.9910
10.671404 85.111 15.9736
10.748734 85.124 15.9560
10.826623 85.136 15.9381
10.905077 85.149 15.9200
10.984100 85.162 15.9021
11.063695 85.175 15.8840
11.143867 85.188 15.8656
11.224621 85.201 15.8470
11.305959 85.213 15.8286
11.387886 85.226 15.8100
11.470407 85.239 15.7911
11.553527 85.252 15.7720
11.637249 85.264 15.7526
11.721577 85.277 15.7330
11.806517 85.290 15.7136
11.892071 85.303 15.6940
11.978246 85.316 15.6741
12.065045 85.329 15.6540
12.152473 85.341 15.6341
12.240536 85.354 15.6140
12.329235 85.367 15.5936
12.418578 85.380 15.5730
12.508568 85.392 15.5526
12.599211 85.405 15.5320
12.690510 85.418 15.5106
12.782471 85.431 15.4890
12.875097 85.444 15.4681
12.968395 85.457 15.4470
13.062370 85.469 15.4251
13.157025 85.482 15.4030
13.252366 85.495 15.3811
13.348398 85.508 15.3590
13.445127 85.520 15.3366
13.542556 85.533 15.3140
13.640691 85.546 15.2911
13.739536 85.559 15.2680
13.839099 85.572 15.2451
13.939383 85.585 15.2220
14.040393 85.597 15.1986
14.142136 85.610 15.1750
14.244616 85.623 15.1511
14.347837 85.636 15.1270
14.451808 85.648 15.1031
14.556532 85.661 15.0790
14.662014 85.674 15.0546
14.768262 85.687 15.0300
14.875278 85.700 15.0052
14.983070 85.713 14.9800
15.091644 85.725 14.9546
15.201005 85.738 14.9290
15.311157 85.751 14.9031
15.422109 85.764 14.8770
15.533863 85.776 14.8511
15.646428 85.789 14.8250
15.759809 85.802 14.7986
15.874010 85.815 14.7720
15.989040 85.828 14.7451
16.104904 85.841 14.7180
16.221605 85.853 14.6906
16.339155 85.866 14.6630
16.457554 85.879 14.6356
16.576813 85.892 14.6080
16.696936 85.904 14.5801
16.817928 85.917 14.5520
16.939798 85.930 14.5241
17.062551 85.943 14.4960
17.186193 85.956 14.4676
17.310732 85.969 14.4390
17.436172 85.981 14.4106
17.562521 85.994 14.3820
17.689787 86.007 14.3530
17.817974 86.020 14.3240
17.947090 86.032 14.2955
18.077143 86.045 14.2670
18.208138 86.058 14.2385
18.340080 86.071 14.2100
18.472980 86.084 14.1818
18.606844 86.097 14.1540
18.741676 86.109 14.1267
18.877487 86.122 14.1000
19.014280 86.135 14.0738
19.152065 86.148 14.0490
19.290850 86.160 14.0268
19.430639 86.173 14.0070
19.571442 86.186 13.9895
19.713264 86.200 13.9750
19.856115 86.213 13.9648
20.000000 86.228 13.9570
20.144928 86.245 13.9519
20.290907 86.264 13.9440
20.437943 86.285 13.9277
20.586044 86.307 13.9040
20.735220 86.329 13.8735
20.885475 86.352 13.8321
21.036821 86.378 13.7763
21.189262 86.404 13.7041
21.342808 86.429 13.6098
21.497467 86.452 13.5011
21.653246 86.471 13.3832
21.810154 86.488 13.2582
21.968201 86.503 13.1292
22.127390 86.516 12.9991
22.287735 86.525 12.8697
22.449242 86.532 12.7471
22.611917 86.536 12.6385
22.775772 86.538 12.5431
22.940815 86.541 12.4631
23.107054 86.544 12.3971
23.274498 86.547 12.3463
23.443153 86.552 12.3051
23.613033 86.561 12.2703
23.784142 86.572 12.2350
23.956491 86.585 12.1907
24.130091 86.600 12.1381
24.304947 86.614 12.0750
24.481071 86.628 12.0021
24.658470 86.642 11.9191
24.837156 86.655 11.8271
25.017136 86.666 11.7248
25.198421 86.675 11.6201
25.381020 86.680 11.5195
25.564941 86.683 11.4261
25.750195 86.685 11.3453
25.936790 86.686 11.2761
26.124741 86.687 11.2198
26.314051 86.689 11.1751
26.504732 86.692 11.1430
26.696796 86.697 11.1180
26.890253 86.705 11.0968
27.085112 86.716 11.0730
27.281382 86.729 11.0388
27.479073 86.744 10.9951
27.678198 86.757 10.9401
27.878765 86.771 10.8741
28.080786 86.785 10.7958
28.284271 86.799 10.7071
28.489231 86.810 10.6072
28.695675 86.819 10.5031
28.903616 86.825 10.4010
29.113064 86.828 10.3031
29.324028 86.830 10.2140
29.536524 86.831 10.1341
29.750557 86.831 10.0658
29.966141 86.831 10.0081
30.183289 86.832 9.9612
30.402010 86.834 9.9240
30.622314 86.837 9.8967
30.844217 86.841 9.8750
31.067726 86.848 9.8567
31.292856 86.858 9.8360
31.519617 86.870 9.8067
31.748020 86.883 9.7681
31.978081 86.897 9.7171
32.209808 86.911 9.6541
32.443211 86.925 9.5775
32.678310 86.939 9.4891
32.915108 86.951 9.3886
33.153625 86.960 9.2811
33.393871 86.966 9.1704
33.635857 86.971 9.0602
33.879597 86.974 8.9555
34.125103 86.976 8.8561
34.372387 86.977 8.7641
34.621464 86.977 8.6781
34.872345 86.977 8.5980
35.125042 86.977 8.5231
35.379574 86.977 8.4531
35.635948 86.977 8.3871
35.894180 86.977 8.3236
36.154285 86.977 8.2631
36.416275 86.977 8.2053
36.680161 86.977 8.1501
36.945961 86.977 8.0974
37.213688 86.977 8.0471
37.483353 86.977 7.9988
37.754974 86.977 7.9531
38.028561 86.977 7.9102
38.304131 86.977 7.8701
38.581699 86.977 7.8322
38.861279 86.977 7.7971
39.142883 86.977 7.7647
39.426529 86.977 7.7360
39.712231 86.977 7.7115
40.000000 86.977 7.6920
40.289856 86.977 7.6786
40.581814 86.978 7.6710
40.875885 86.980 7.6697
41.172089 86.983 7.6730
41.470440 86.988 7.6808
41.770950 86.995 7.6880
42.073643 87.005 7.6907
42.378525 87.017 7.6850
42.685616 87.031 7.6655
42.994934 87.045 7.6331
43.306492 87.059 7.5866
43.620308 87.073 7.5271
43.936401 87.086 7.4539
44.254780 87.098 7.3701
44.575470 87.107 7.2770
44.898483 87.113 7.1802
45.223835 87.117 7.0850
45.551544 87.120 6.9931
45.881630 87.121 6.9084
46.214108 87.122 6.8291
46.548996 87.122 6.7552
46.886307 87.122 6.6861
47.226067 87.122 6.6217
47.568283 87.122 6.5611
47.912983 87.122 6.5033
48.260181 87.122 6.4481
48.609894 87.122 6.3946
48.962143 87.122 6.3431
49.316940 87.122 6.2932
49.674313 87.122 6.2451
50.034271 87.122 6.1989
50.396843 87.122 6.1541
50.762039 87.122 6.1099
51.129883 87.122 6.0671
51.500389 87.122 6.0259
51.873581 87.122 5.9861
52.249481 87.122 5.9476
52.628101 87.122 5.9101
53.009464 87.122 5.8730
53.393593 87.122 5.8371
53.780506 87.122 5.8030
54.170223 87.122 5.7701
54.562763 87.122 5.7376
54.958145 87.122 5.7060
55.356396 87.122 5.6755
55.757530 87.122 5.6460
56.161572 87.122 5.6180
56.568542 87.122 5.5910
56.978462 87.122 5.5650
57.391350 87.122 5.5400
57.807232 87.122 5.5164
58.226128 87.122 5.4940
58.648056 87.122 5.4729
59.073048 87.122 5.4530
59.501114 87.122 5.4343
59.932281 87.122 5.4170
60.366577 87.122 5.4017
60.804020 87.122 5.3880
61.244629 87.122 5.3756
61.688435 87.122 5.3650
62.135452 87.122 5.3568
62.585712 87.122 5.3510
63.039234 87.122 5.3479
63.496040 87.122 5.3480
63.956161 87.122 5.3512
64.419617 87.122 5.3590
64.886421 87.122 5.3729
65.356621 87.122 5.3930
65.830215 87.123 5.4197
66.307251 87.126 5.4529
66.787743 87.129 5.4940
67.271713 87.134 5.5389
67.759193 87.142 5.5855
68.250206 87.153 5.6289
68.744774 87.166 5.6631
69.242928 87.181 5.6890
69.744690 87.197 5.7056
70.250084 87.213 5.7130
70.759148 87.230 5.7118
71.271896 87.248 5.6990
71.788361 87.267 5.6716
72.308571 87.287 5.6301
72.832550 87.305 5.5730
73.360321 87.323 5.5041
73.891922 87.339 5.4273
74.427376 87.354 5.3412
74.966705 87.369 5.2454
75.509949 87.382 5.1412
76.057121 87.393 5.0278
76.608261 87.402 4.9112
77.163399 87.406 4.7964
77.722557 87.409 4.6852
78.285767 87.411 4.5815
78.853058 87.413 4.4842
79.424461 87.413 4.3936
80.000000 87.413 4.3092
80.579712 87.413 4.2309
81.163628 87.413 4.1571
81.751770 87.413 4.0862
82.344177 87.413 4.0181
82.940880 87.413 3.9525
83.541901 87.413 3.8891
84.147285 87.413 3.8277
84.757050 87.413 3.7681
85.371231 87.413 3.7099
85.989868 87.413 3.6531
86.612984 87.413 3.5980
87.240616 87.413 3.5441
87.872803 87.413 3.4911
88.509560 87.413 3.4391
89.150940 87.413 3.3881
89.796967 87.413 3.3381
90.447670 87.413 3.2892
91.103088 87.413 3.2411
91.763260 87.413 3.1937
92.428215 87.413 3.1471
93.097992 87.413 3.1017
93.772614 87.413 3.0571
94.452133 87.413 3.0127
95.136566 87.413 2.9691
95.825966 87.413 2.9271
96.520363 87.413 2.8861
97.219788 87.413 2.8456
97.924286 87.413 2.8061
98.633881 87.413 2.7680
99.348625 87.413 2.7311
100.068542 87.413 2.6951
100.793686 87.413 2.6611
101.524078 87.413 2.6295
102.259766 87.413 2.6011
103.000778 87.413 2.5764
103.747162 87.413 2.5560
104.498962 87.414 2.5410
105.256203 87.416 2.5300
106.018929 87.419 2.5238
106.787186 87.424 2.5180
107.561012 87.432 2.5110
108.340446 87.443 2.4960
109.125526 87.456 2.4659
109.916290 87.471 2.4211
110.712791 87.485 2.3594
111.515060 87.499 2.2812
112.323143 87.513 2.1861
113.137085 87.526 2.0743
113.956924 87.537 1.9435
114.782700 87.546 1.8004
115.614464 87.550 1.6500
116.452255 87.552 1.4953
117.296112 87.551 1.3397
118.146095 87.548 1.1863
119.002228 87.541 1.0375
119.864563 87.531 0.8984
120.733154 87.518 0.7750
121.608040 87.504 0.6662
122.489258 87.491 0.5733
123.376869 87.477 0.4952
124.270905 87.463 0.4320
125.171425 87.449 0.3821
126.078468 87.437 0.3461
126.992081 87.428 0.3171
127.912323 87.422 0.2896
128.839233 87.418 0.2591
129.772842 87.415 0.2190
130.713242 87.413 0.1701
131.660431 87.411 0.1105
132.614502 87.409 0.0412
133.575485 87.407 -0.0392
134.543427 87.402 -0.1248
135.518387 87.393 -0.2125
136.500412 87.382 -0.2958
137.489548 87.369 -0.3673
138.485855 87.354 -0.4279
139.489380 87.340 -0.4759
140.500168 87.326 -0.5119
141.518295 87.312 -0.5354
142.543793 87.299 -0.5480
143.576721 87.288 -0.5486
144.617142 87.279 -0.5450
145.665100 87.274 -0.5439
146.720642 87.271 -0.5480
147.783844 87.269 -0.5624
148.854752 87.267 -0.5869
149.933411 87.267 -0.6229
151.019897 87.266 -0.6699
152.114243 87.264 -0.7291
153.216522 87.260 -0.7968
154.326797 87.255 -0.8715
155.445114 87.247 -0.9478
156.571533 87.236 -1.0207
157.706116 87.224 -1.0879
158.848923 87.210 -1.1447
160.000000 87.196 -1.1929
161.159424 87.182 -1.2317
162.327255 87.168 -1.2629
163.503540 87.155 -1.2866
164.688354 87.143 -1.3070
165.881760 87.133 -1.3272
167.083801 87.124 -1.3509
168.294571 87.115 -1.3841
169.514099 87.106 -1.4229
170.742462 87.095 -1.4667
171.979736 87.082 -1.5119
173.225967 87.069 -1.5545
174.481232 87.054 -1.5949
175.745605 87.038 -1.6323
177.019119 87.021 -1.6659
178.301880 87.003 -1.6949
179.593933 86.985 -1.7189
180.895340 86.966 -1.7368
182.206177 86.947 -1.7500
183.526520 86.928 -1.7592
184.856430 86.909 -1.7660
186.195984 86.890 -1.7739
187.545227 86.869 -1.7780
188.904266 86.844 -1.7757
190.273132 86.818 -1.7640
191.651932 86.792 -1.7385
193.040726 86.766 -1.7011
194.439575 86.740 -1.6542
195.848572 86.712 -1.5932
197.267761 86.682 -1.5142
198.697250 86.651 -1.4183
200.137085 86.624 -1.3047
201.587372 86.597 -1.1743
203.048157 86.569 -1.0298
204.519531 86.542 -0.8655
206.001556 86.515 -0.6744
207.494324 86.491 -0.4635
208.997925 86.473 -0.2372
210.512405 86.459 0.0024
212.037857 86.445 0.2527
213.574371 86.436 0.5104
215.122025 86.434 0.7752
216.680893 86.437 1.0353
218.251053 86.445 1.2780
219.832581 86.457 1.5054
221.425583 86.469 1.7149
223.030121 86.482 1.9085
224.646286 86.497 2.0864
226.274170 86.513 2.2516
227.913849 86.527 2.4054
229.565399 86.540 2.5526
231.228928 86.553 2.6998
232.904510 86.568 2.8436
234.592224 86.585 2.9828
236.292191 86.603 3.1176
238.004456 86.620 3.2493
239.729126 86.639 3.3737
241.466309 86.662 3.4887
243.216080 86.687 3.5897
244.978516 86.711 3.6685
246.753738 86.734 3.7338
248.541809 86.754 3.7908
250.342850 86.773 3.8419
252.156937 86.792 3.8921
253.984161 86.812 3.9379
255.824646 86.832 3.9765
257.678467 86.851 4.0099
259.545685 86.869 4.0384
261.426483 86.887 4.0639
263.320862 86.904 4.0891
265.229004 86.921 4.1129
267.150970 86.938 4.1362
269.086853 86.955 4.1569
271.036774 86.973 4.1733
273.000824 86.990 4.1860
274.979095 87.007 4.1944
276.971710 87.023 4.2000
278.978760 87.039 4.2035
281.000336 87.054 4.2060
283.036591 87.068 4.2082
285.087585 87.082 4.2120
287.153442 87.095 4.2179
289.234283 87.107 4.2300
291.330200 87.118 4.2527
293.441284 87.129 4.2859
295.567688 87.143 4.3331
297.709503 87.160 4.3869
299.866821 87.180 4.4424
302.039795 87.203 4.4949
304.228485 87.229 4.5384
306.433044 87.258 4.5709
308.653595 87.288 4.5893
310.890228 87.321 4.5910
313.143066 87.356 4.5717
315.412231 87.392 4.5331
317.697845 87.426 4.4744
320.000000 87.459 4.3992
322.318848 87.492 4.3120
324.654510 87.525 4.2103
327.007080 87.558 4.0933
329.376709 87.591 3.9614
331.763519 87.622 3.8145
334.167603 87.653 3.6535
336.589142 87.683 3.4798
339.028198 87.712 3.2916
341.484924 87.740 3.0864
343.959473 87.767 2.8676
346.451935 87.791 2.6395
348.962463 87.814 2.3977
351.491211 87.840 2.1413
354.038239 87.865 1.8648
356.603760 87.888 1.5620
359.187866 87.908 1.2350
361.790680 87.926 0.8858
364.412354 87.941 0.5091
367.053040 87.955 0.1000
369.712860 87.964 -0.3406
372.391968 87.966 -0.8160
375.090454 87.959 -1.3185
377.808533 87.943 -1.8470
380.546265 87.915 -2.3844
383.303864 87.872 -2.9199
386.081451 87.816 -3.4336
388.879150 87.746 -3.9057
391.697144 87.664 -4.3248
394.535522 87.571 -4.6783
397.394501 87.468 -4.9503
400.274170 87.354 -5.1218
403.174744 87.235 -5.1900
406.096313 87.117 -5.1408
409.039062 87.002 -4.9896
412.003113 86.896 -4.7436
414.988647 86.797 -4.4132
417.995850 86.707 -4.0060
421.024811 86.628 -3.5376
424.075714 86.566 -3.0206
427.148743 86.517 -2.4708
430.244049 86.481 -1.9051
433.361786 86.458 -1.3329
436.502106 86.449 -0.7650
439.665161 86.452 -0.2137
442.851166 86.467 0.3053
446.060242 86.491 0.7915
449.292572 86.520 1.2386
452.548340 86.554 1.6488
455.827698 86.594 2.0234
459.130798 86.639 2.3590
462.457855 86.688 2.6517
465.809021 86.740 2.9043
469.184448 86.792 3.1165
472.584381 86.844 3.2935
476.008911 86.896 3.4407
479.458252 86.950 3.5577
482.932617 87.005 3.6465
486.432159 87.060 3.7049
489.957031 87.115 3.7314
493.507477 87.171 3.7261
497.083618 87.226 3.6874
500.685699 87.281 3.6183
504.313873 87.333 3.5212
507.968323 87.384 3.3955
511.649292 87.434 3.2409
515.356934 87.483 3.0577
519.091370 87.528 2.8427
522.852966 87.570 2.6048
526.641724 87.606 2.3517
530.458008 87.638 2.0839
534.301941 87.669 1.8059
538.173706 87.699 1.5130
542.073547 87.726 1.2005
546.001648 87.751 0.8731
549.958191 87.770 0.5347
553.943420 87.787 0.1832
557.957520 87.803 -0.1806
562.000671 87.818 -0.5617
566.073181 87.830 -0.9655
570.175171 87.838 -1.3906
574.306885 87.842 -1.8355
578.468567 87.842 -2.3053
582.660400 87.840 -2.8042
586.882568 87.832 -3.3331
591.135376 87.816 -3.8970
595.419006 87.790 -4.4879
599.733643 87.754 -5.1045
604.079590 87.705 -5.7318
608.456970 87.640 -6.3618
612.866089 87.558 -6.9720
617.307190 87.460 -7.5432
621.780457 87.344 -8.0574
626.286133 87.213 -8.4991
630.824463 87.066 -8.8421
635.395691 86.901 -9.0578
640.000000 86.727 -9.1370
644.637695 86.549 -9.0582
649.309021 86.371 -8.8290
654.014160 86.194 -8.4488
658.753418 86.024 -7.9210
663.527039 85.862 -7.2395
668.335205 85.716 -6.4329
673.178284 85.597 -5.5187
678.056396 85.499 -4.5245
682.969849 85.423 -3.4773
687.918945 85.370 -2.3968
692.903870 85.344 -1.3033
697.924927 85.342 -0.2217
702.982422 85.362 0.8179
708.076477 85.401 1.8105
713.207520 85.454 2.7432
718.375732 85.521 3.6100
723.581360 85.602 4.4026
728.824707 85.694 5.1156
734.106079 85.793 5.7372
739.425720 85.897 6.2782
744.783936 86.001 6.7453
750.180908 86.108 7.1397
755.617065 86.220 7.4668
761.092529 86.336 7.7212
766.607727 86.453 7.8989
772.162903 86.571 8.0018
777.758301 86.688 8.0327
783.394287 86.807 7.9843
789.071045 86.926 7.8532
794.789001 87.044 7.6300
800.548340 87.158 7.3004
806.349487 87.264 6.8757
812.192627 87.355 6.3575
818.078125 87.433 5.7603
824.006226 87.498 5.0923
829.977295 87.545 4.3736
835.991699 87.568 3.6171
842.049622 87.570 2.8538
848.151428 87.551 2.1133
854.297485 87.512 1.4135
860.488098 87.455 0.7763
866.723572 87.382 0.2189
873.004211 87.294 -0.2383
879.330322 87.194 -0.5840
885.702332 87.087 -0.7971
892.120483 86.977 -0.8869
898.585144 86.873 -0.8492
905.096680 86.774 -0.7037
911.655396 86.686 -0.4624
918.261597 86.609 -0.1443
924.915710 86.547 0.2354
931.618042 86.500 0.6534
938.368896 86.470 1.0875
945.168762 86.454 1.5194
952.017822 86.452 1.9227
958.916504 86.458 2.3006
965.865234 86.468 2.6446
972.864319 86.482 2.9639
979.914062 86.499 3.2643
987.014954 86.521 3.5470
994.167236 86.547 3.8157
1001.371399 86.579 4.0671
1008.627747 86.616 4.3046
1015.936646 86.661 4.5122
1023.298584 86.717 4.6833
1030.713867 86.783 4.7928
1038.182739 86.857 4.8164
1045.705933 86.936 4.7455
1053.283447 87.013 4.5620
1060.916016 87.086 4.2695
1068.603882 87.151 3.8594
1076.347412 87.203 3.3513
1084.147095 87.235 2.7488
1092.003296 87.245 2.0913
1099.916382 87.228 1.4069
