* Measurement data measured by REW V5.20.13
* Source: C:\Users\kurin\Desktop\Targets and Curves\Resolve\Img\Files\Silver ananda stealth_SPL.txt
* Format: Comma/Tab/Space delimited data
* Dated: Aug 14, 2023 6:35:46 PM
* REW Settings:
*  C-weighting compensation: Off
*  Target level: 75.0 dB
* Note: ; Measurement imported from C:\Users\kurin\Desktop\Targets and Curves\Resolve\Img\Files\Silver ananda stealth_SPL.txt Format: Comma/Tab/Space delimited data 623 values loaded, 5 Hz to 39,792 Hz log spaced 
* Measurement: Silver ananda stealth_SPL
* Smoothing: 1/48 octave
* Frequency Step: 1/96 octave
* Start Frequency: 5.000 Hz
*
* Freq(Hz) SPL(dB) Phase(degrees)
5.000000 80.198 11.4410
5.036232 80.202 11.4343
5.072727 80.207 11.4270
5.109486 80.212 11.4186
5.146511 80.218 11.4090
5.183805 80.225 11.3975
5.221369 80.233 11.3850
5.259205 80.241 11.3723
5.297316 80.250 11.3590
5.335702 80.259 11.3452
5.374367 80.268 11.3310
5.413311 80.277 11.3166
5.452538 80.287 11.3020
5.492050 80.296 11.2876
5.531847 80.305 11.2730
5.571934 80.314 11.2581
5.612310 80.324 11.2430
5.652979 80.333 11.2280
5.693943 80.342 11.2130
5.735204 80.352 11.1981
5.776763 80.361 11.1830
5.818624 80.370 11.1676
5.860788 80.379 11.1520
5.903258 80.388 11.1366
5.946035 80.398 11.1210
5.989123 80.407 11.1051
6.032523 80.416 11.0890
6.076237 80.425 11.0731
6.120268 80.435 11.0570
6.164618 80.444 11.0406
6.209289 80.453 11.0240
6.254284 80.463 11.0076
6.299605 80.472 10.9910
6.345255 80.481 10.9741
6.391235 80.490 10.9570
6.437549 80.499 10.9401
6.484198 80.509 10.9230
6.531185 80.518 10.9056
6.578513 80.527 10.8880
6.626183 80.536 10.8706
6.674199 80.546 10.8530
6.722563 80.555 10.8351
6.771278 80.564 10.8170
6.820345 80.574 10.7991
6.869768 80.583 10.7810
6.919549 80.592 10.7626
6.969691 80.601 10.7440
7.020196 80.610 10.7256
7.071068 80.619 10.7070
7.122308 80.629 10.6881
7.173919 80.638 10.6690
7.225904 80.647 10.6496
7.278266 80.656 10.6300
7.331007 80.665 10.6106
7.384131 80.675 10.5910
7.437639 80.684 10.5711
7.491535 80.693 10.5510
7.545822 80.702 10.5311
7.600502 80.712 10.5110
7.655579 80.721 10.4906
7.711054 80.730 10.4700
7.766932 80.740 10.4496
7.823214 80.749 10.4290
7.879904 80.758 10.4076
7.937005 80.767 10.3860
7.994520 80.776 10.3645
8.052452 80.786 10.3430
8.110803 80.795 10.3216
8.169578 80.804 10.3000
8.228777 80.813 10.2776
8.288406 80.823 10.2550
8.348468 80.832 10.2325
8.408964 80.841 10.2100
8.469899 80.851 10.1876
8.531276 80.860 10.1650
8.593097 80.869 10.1416
8.655366 80.878 10.1180
8.718086 80.887 10.0946
8.781260 80.897 10.0710
8.844893 80.906 10.0471
8.908987 80.915 10.0230
8.973545 80.924 9.9986
9.038571 80.934 9.9740
9.104069 80.943 9.9496
9.170040 80.952 9.9250
9.236490 80.962 9.8996
9.303422 80.971 9.8740
9.370838 80.980 9.8486
9.438744 80.989 9.8230
9.507140 80.998 9.7971
9.576033 81.008 9.7710
9.645425 81.017 9.7446
9.715320 81.026 9.7180
9.785721 81.035 9.6916
9.856632 81.044 9.6650
9.928058 81.053 9.6376
10.000000 81.063 9.6100
10.072464 81.072 9.5826
10.145453 81.081 9.5550
10.218971 81.090 9.5266
10.293022 81.100 9.4980
10.367610 81.109 9.4696
10.442738 81.118 9.4410
10.518411 81.127 9.4116
10.594631 81.137 9.3820
10.671404 81.146 9.3526
10.748734 81.155 9.3230
10.826623 81.164 9.2926
10.905077 81.174 9.2620
10.984100 81.183 9.2316
11.063695 81.192 9.2010
11.143867 81.201 9.1696
11.224621 81.211 9.1380
11.305959 81.220 9.1066
11.387886 81.229 9.0750
11.470407 81.238 9.0427
11.553527 81.248 9.0100
11.637249 81.257 8.9771
11.721577 81.266 8.9440
11.806517 81.275 8.9107
11.892071 81.285 8.8770
11.978246 81.294 8.8432
12.065045 81.303 8.8090
12.152473 81.312 8.7741
12.240536 81.322 8.7390
12.329235 81.331 8.7041
12.418578 81.340 8.6690
12.508568 81.349 8.6333
12.599211 81.359 8.5970
12.690510 81.368 8.5602
12.782471 81.377 8.5230
12.875097 81.386 8.4857
12.968395 81.396 8.4480
13.062370 81.405 8.4102
13.157025 81.414 8.3720
13.252366 81.423 8.3332
13.348398 81.432 8.2940
13.445127 81.441 8.2547
13.542556 81.451 8.2150
13.640691 81.460 8.1753
13.739536 81.469 8.1350
13.839099 81.478 8.0938
13.939383 81.488 8.0520
14.040393 81.497 8.0102
14.142136 81.506 7.9680
14.244616 81.515 7.9252
14.347837 81.525 7.8820
14.451808 81.534 7.8387
14.556532 81.543 7.7950
14.662014 81.552 7.7508
14.768262 81.562 7.7061
14.875278 81.571 7.6603
14.983070 81.580 7.6140
15.091644 81.589 7.5678
15.201005 81.599 7.5210
15.311157 81.608 7.4733
15.422109 81.617 7.4250
15.533863 81.626 7.3768
15.646428 81.636 7.3280
15.759809 81.645 7.2784
15.874010 81.654 7.2280
15.989040 81.663 7.1768
16.104904 81.673 7.1250
16.221605 81.682 7.0734
16.339155 81.691 7.0211
16.457554 81.700 6.9674
16.576813 81.710 6.9130
16.696936 81.719 6.8583
16.817928 81.728 6.8030
16.939798 81.737 6.7469
17.062551 81.747 6.6901
17.186193 81.756 6.6324
17.310732 81.765 6.5740
17.436172 81.774 6.5150
17.562521 81.784 6.4550
17.689787 81.793 6.3941
17.817974 81.802 6.3321
17.947090 81.811 6.2691
18.077143 81.821 6.2050
18.208138 81.830 6.1396
18.340080 81.839 6.0731
18.472980 81.848 6.0057
18.606844 81.857 5.9370
18.741676 81.866 5.8664
18.877487 81.876 5.7941
19.014280 81.885 5.7202
19.152065 81.894 5.6441
19.290850 81.903 5.5649
19.430639 81.912 5.4831
19.571442 81.921 5.3983
19.713264 81.929 5.3111
19.856115 81.937 5.2213
20.000000 81.944 5.1301
20.144928 81.950 5.0380
20.290907 81.955 4.9471
20.437943 81.959 4.8592
20.586044 81.962 4.7751
20.735220 81.965 4.6955
20.885475 81.968 4.6221
21.036821 81.970 4.5575
21.189262 81.973 4.4991
21.342808 81.977 4.4458
21.497467 81.983 4.3951
21.653246 81.990 4.3443
21.810154 81.998 4.2921
21.968201 82.007 4.2372
22.127390 82.018 4.1771
22.287735 82.029 4.1083
22.449242 82.041 4.0321
22.611917 82.052 3.9473
22.775772 82.063 3.8571
22.940815 82.072 3.7645
23.107054 82.081 3.6691
23.274498 82.091 3.5721
23.443153 82.101 3.4721
23.613033 82.111 3.3686
23.784142 82.121 3.2601
23.956491 82.132 3.1462
24.130091 82.143 3.0241
24.304947 82.154 2.8900
24.481071 82.164 2.7462
24.658470 82.172 2.5920
24.837156 82.178 2.4322
25.017136 82.181 2.2706
25.198421 82.183 2.1092
25.381020 82.183 1.9506
25.564941 82.181 1.7971
25.750195 82.177 1.6518
25.936790 82.173 1.5142
26.124741 82.169 1.3863
26.314051 82.165 1.2642
26.504732 82.163 1.1454
26.696796 82.161 1.0271
26.890253 82.160 0.9061
27.085112 82.159 0.7811
27.281382 82.158 0.6502
27.479073 82.157 0.5132
27.678198 82.155 0.3688
27.878765 82.152 0.2192
28.080786 82.147 0.0645
28.284271 82.140 -0.0908
28.489231 82.130 -0.2425
28.695675 82.118 -0.3888
28.903616 82.105 -0.5264
29.113064 82.091 -0.6548
29.324028 82.075 -0.7730
29.536524 82.058 -0.8789
29.750557 82.040 -0.9682
29.966141 82.023 -1.0459
30.183289 82.009 -1.1146
30.402010 81.996 -1.1769
30.622314 81.983 -1.2368
30.844217 81.970 -1.2929
31.067726 81.958 -1.3444
31.292856 81.947 -1.3939
31.519617 81.937 -1.4443
31.748020 81.928 -1.4949
31.978081 81.918 -1.5471
32.209808 81.908 -1.5979
32.443211 81.898 -1.6444
32.678310 81.889 -1.6889
32.915108 81.881 -1.7321
33.153625 81.874 -1.7759
33.393871 81.867 -1.8226
33.635857 81.860 -1.8719
33.879597 81.853 -1.9244
34.125103 81.847 -1.9809
34.372387 81.841 -2.0435
34.621464 81.834 -2.1099
34.872345 81.825 -2.1802
35.125042 81.815 -2.2489
35.379574 81.803 -2.3107
35.635948 81.790 -2.3659
35.894180 81.778 -2.4129
36.154285 81.766 -2.4529
36.416275 81.754 -2.4863
36.680161 81.742 -2.5140
36.945961 81.732 -2.5345
37.213688 81.723 -2.5550
37.483353 81.718 -2.5818
37.754974 81.713 -2.6159
38.028561 81.707 -2.6617
38.304131 81.701 -2.7149
38.581699 81.694 -2.7740
38.861279 81.685 -2.8359
39.142883 81.674 -2.8985
39.426529 81.661 -2.9569
39.712231 81.646 -3.0058
40.000000 81.630 -3.0440
40.289856 81.614 -3.0668
40.581814 81.598 -3.0790
40.875885 81.584 -3.0826
41.172089 81.572 -3.0810
41.470440 81.561 -3.0782
41.770950 81.550 -3.0740
42.073643 81.541 -3.0691
42.378525 81.532 -3.0650
42.685616 81.524 -3.0642
42.994934 81.517 -3.0650
43.306492 81.509 -3.0670
43.620308 81.500 -3.0680
43.936401 81.492 -3.0650
44.254780 81.484 -3.0600
44.575470 81.478 -3.0529
44.898483 81.472 -3.0470
45.223835 81.467 -3.0447
45.551544 81.464 -3.0490
45.881630 81.463 -3.0637
46.214108 81.461 -3.0880
46.548996 81.457 -3.1240
46.886307 81.452 -3.1659
47.226067 81.445 -3.2092
47.568283 81.436 -3.2519
47.912983 81.426 -3.2911
48.260181 81.414 -3.3249
48.609894 81.401 -3.3510
48.962143 81.388 -3.3690
49.316940 81.375 -3.3762
49.674313 81.362 -3.3780
50.034271 81.352 -3.3779
50.396843 81.343 -3.3780
50.762039 81.333 -3.3819
51.129883 81.322 -3.3890
51.500389 81.312 -3.4000
51.873581 81.302 -3.4140
52.249481 81.290 -3.4320
52.628101 81.276 -3.4480
53.009464 81.259 -3.4576
53.393593 81.240 -3.4570
53.780506 81.219 -3.4410
54.170223 81.197 -3.4091
54.562763 81.175 -3.3593
54.958145 81.153 -3.2911
55.356396 81.131 -3.2035
55.757530 81.110 -3.0962
56.161572 81.091 -2.9671
56.568542 81.075 -2.8203
56.978462 81.062 -2.6579
57.391350 81.052 -2.4833
57.807232 81.046 -2.2989
58.226128 81.044 -2.1093
58.648056 81.047 -1.9178
59.073048 81.056 -1.7313
59.501114 81.070 -1.5565
59.932281 81.088 -1.3983
60.366577 81.110 -1.2633
60.804020 81.134 -1.1532
61.244629 81.160 -1.0722
61.688435 81.187 -1.0191
62.135452 81.213 -0.9955
62.585712 81.237 -0.9960
63.039234 81.259 -1.0179
63.496040 81.278 -1.0549
63.956161 81.294 -1.1010
64.419617 81.307 -1.1519
64.886421 81.318 -1.2013
65.356621 81.327 -1.2489
65.830215 81.336 -1.2919
66.307251 81.344 -1.3319
66.787743 81.351 -1.3697
67.271713 81.358 -1.4049
67.759193 81.366 -1.4367
68.250206 81.374 -1.4669
68.744774 81.383 -1.4961
69.242928 81.393 -1.5279
69.744690 81.405 -1.5656
70.250084 81.418 -1.6119
70.759148 81.431 -1.6707
71.271896 81.445 -1.7419
71.788361 81.458 -1.8265
72.308571 81.470 -1.9248
72.832550 81.482 -2.0377
73.360321 81.493 -2.1648
73.891922 81.501 -2.3083
74.427376 81.506 -2.4607
74.966705 81.505 -2.6169
75.509949 81.501 -2.7707
76.057121 81.494 -2.9147
76.608261 81.484 -3.0477
77.163399 81.472 -3.1658
77.722557 81.458 -3.2698
78.285767 81.445 -3.3594
78.853058 81.431 -3.4349
79.424461 81.416 -3.4959
80.000000 81.401 -3.5439
80.579712 81.389 -3.5785
81.163628 81.378 -3.6050
81.751770 81.368 -3.6281
82.344177 81.360 -3.6490
82.940880 81.353 -3.6698
83.541901 81.347 -3.6910
84.147285 81.342 -3.7124
84.757050 81.337 -3.7369
85.371231 81.334 -3.7679
85.989868 81.331 -3.8039
86.612984 81.327 -3.8454
87.240616 81.322 -3.8899
87.872803 81.317 -3.9348
88.509560 81.311 -3.9809
89.150940 81.305 -4.0281
89.796967 81.298 -4.0759
90.447670 81.291 -4.1238
91.103088 81.283 -4.1719
91.763260 81.275 -4.2204
92.428215 81.267 -4.2679
93.097992 81.257 -4.3144
93.772614 81.245 -4.3559
94.452133 81.232 -4.3882
95.136566 81.219 -4.4120
95.825966 81.206 -4.4264
96.520363 81.194 -4.4320
97.219788 81.181 -4.4284
97.924286 81.170 -4.4170
98.633881 81.161 -4.3970
99.348625 81.154 -4.3750
100.068542 81.150 -4.3565
100.793686 81.147 -4.3440
101.524078 81.146 -4.3425
102.259766 81.144 -4.3500
103.000778 81.141 -4.3680
103.747162 81.137 -4.3910
104.498962 81.131 -4.4138
105.256203 81.125 -4.4370
106.018929 81.119 -4.4594
106.787186 81.113 -4.4810
107.561012 81.105 -4.5017
108.340446 81.097 -4.5200
109.125526 81.089 -4.5337
109.916290 81.080 -4.5450
110.712791 81.072 -4.5567
111.515060 81.063 -4.5650
112.323143 81.052 -4.5681
113.137085 81.040 -4.5630
113.956924 81.028 -4.5459
114.782700 81.017 -4.5171
115.614464 81.006 -4.4749
116.452255 80.996 -4.4211
117.296112 80.990 -4.3549
118.146095 80.986 -4.2832
119.002228 80.986 -4.2107
119.864563 80.989 -4.1432
120.733154 80.996 -4.0866
121.608040 81.005 -4.0441
122.489258 81.016 -4.0212
123.376869 81.028 -4.0160
124.270905 81.039 -4.0300
125.171425 81.049 -4.0589
126.078468 81.057 -4.1001
126.992081 81.064 -4.1509
127.912323 81.070 -4.2086
128.839233 81.074 -4.2709
129.772842 81.077 -4.3350
130.713242 81.078 -4.3999
131.660431 81.079 -4.4630
132.614502 81.079 -4.5258
133.575485 81.079 -4.5886
134.543427 81.079 -4.6519
135.518387 81.079 -4.7161
136.500412 81.079 -4.7819
137.489548 81.079 -4.8495
138.485855 81.079 -4.9198
139.489380 81.079 -4.9938
140.500168 81.079 -5.0718
141.518295 81.079 -5.1546
142.543793 81.079 -5.2428
143.576721 81.078 -5.3373
144.617142 81.077 -5.4378
145.665100 81.075 -5.5442
146.720642 81.072 -5.6557
147.783844 81.068 -5.7719
148.854752 81.063 -5.8917
149.933411 81.056 -6.0132
151.019897 81.049 -6.1377
152.114243 81.042 -6.2657
153.216522 81.033 -6.3966
154.326797 81.022 -6.5303
155.445114 81.010 -6.6657
156.571533 80.997 -6.8011
157.706116 80.983 -6.9377
158.848923 80.968 -7.0763
160.000000 80.952 -7.2167
161.159424 80.934 -7.3598
162.327255 80.914 -7.5027
163.503540 80.892 -7.6418
164.688354 80.869 -7.7787
165.881760 80.845 -7.9136
167.083801 80.819 -8.0466
168.294571 80.792 -8.1786
169.514099 80.763 -8.3087
170.742462 80.733 -8.4365
171.979736 80.700 -8.5617
173.225967 80.666 -8.6843
174.481232 80.629 -8.8027
175.745605 80.590 -8.9171
177.019119 80.548 -9.0228
178.301880 80.502 -9.1167
179.593933 80.453 -9.1948
180.895340 80.401 -9.2518
182.206177 80.347 -9.2879
183.526520 80.292 -9.3024
184.856430 80.235 -9.2930
186.195984 80.176 -9.2579
187.545227 80.116 -9.1962
188.904266 80.057 -9.1061
190.273132 79.997 -8.9883
191.651932 79.938 -8.8428
193.040726 79.880 -8.6695
194.439575 79.823 -8.4684
195.848572 79.767 -8.2397
197.267761 79.713 -7.9835
198.697250 79.662 -7.7007
200.137085 79.614 -7.3904
201.587372 79.570 -7.0578
203.048157 79.531 -6.7067
204.519531 79.497 -6.3401
206.001556 79.467 -5.9614
207.494324 79.441 -5.5740
208.997925 79.421 -5.1811
210.512405 79.406 -4.7859
212.037857 79.395 -4.3924
213.574371 79.388 -4.0019
215.122025 79.386 -3.6163
216.680893 79.388 -3.2390
218.251053 79.394 -2.8738
219.832581 79.404 -2.5210
221.425583 79.416 -2.1824
223.030121 79.431 -1.8578
224.646286 79.449 -1.5472
226.274170 79.469 -1.2527
227.913849 79.491 -0.9766
229.565399 79.515 -0.7186
231.228928 79.540 -0.4795
232.904510 79.566 -0.2586
234.592224 79.594 -0.0551
236.292191 79.622 0.1295
238.004456 79.651 0.2935
239.729126 79.679 0.4386
241.466309 79.706 0.5656
243.216080 79.733 0.6767
244.978516 79.758 0.7744
246.753738 79.783 0.8588
248.541809 79.807 0.9300
250.342850 79.829 0.9898
252.156937 79.849 1.0387
253.984161 79.867 1.0809
255.824646 79.882 1.1208
257.678467 79.896 1.1589
259.545685 79.909 1.1964
261.426483 79.920 1.2359
263.320862 79.928 1.2797
265.229004 79.935 1.3299
267.150970 79.942 1.3901
269.086853 79.949 1.4578
271.036774 79.956 1.5316
273.000824 79.964 1.6118
274.979095 79.971 1.6987
276.971710 79.980 1.7897
278.978760 79.991 1.8832
281.000336 80.003 1.9767
283.036591 80.016 2.0664
285.087585 80.029 2.1547
287.153442 80.042 2.2434
289.234283 80.055 2.3318
291.330200 80.070 2.4200
293.441284 80.087 2.5068
295.567688 80.104 2.5920
297.709503 80.123 2.6718
299.866821 80.144 2.7429
302.039795 80.167 2.8038
304.228485 80.189 2.8513
306.433044 80.211 2.8879
308.653595 80.233 2.9148
310.890228 80.254 2.9330
313.143066 80.275 2.9442
315.412231 80.295 2.9480
317.697845 80.314 2.9438
320.000000 80.333 2.9340
322.318848 80.350 2.9202
324.654510 80.366 2.9050
327.007080 80.381 2.8922
329.376709 80.396 2.8800
331.763519 80.411 2.8688
334.167603 80.426 2.8570
336.589142 80.441 2.8426
339.028198 80.456 2.8280
341.484924 80.470 2.8154
343.959473 80.484 2.8040
346.451935 80.499 2.7948
348.962463 80.515 2.7850
351.491211 80.533 2.7735
354.038239 80.552 2.7561
356.603760 80.573 2.7288
359.187866 80.596 2.6901
361.790680 80.619 2.6368
364.412354 80.642 2.5692
367.053040 80.664 2.4872
369.712860 80.687 2.3893
372.391968 80.710 2.2741
375.090454 80.732 2.1414
377.808533 80.752 1.9902
380.546265 80.770 1.8215
383.303864 80.787 1.6357
386.081451 80.801 1.4336
388.879150 80.811 1.2147
391.697144 80.818 0.9837
394.535522 80.820 0.7440
397.394501 80.818 0.4997
400.274170 80.811 0.2545
403.174744 80.798 0.0138
406.096313 80.780 -0.2169
409.039062 80.758 -0.4343
412.003113 80.732 -0.6341
414.988647 80.702 -0.8144
417.995850 80.670 -0.9717
421.024811 80.635 -1.1076
424.075714 80.599 -1.2239
427.148743 80.561 -1.3167
430.244049 80.519 -1.3841
433.361786 80.474 -1.4219
436.502106 80.429 -1.4249
439.665161 80.384 -1.3951
442.851166 80.340 -1.3344
446.060242 80.296 -1.2394
449.292572 80.252 -1.1055
452.548340 80.210 -0.9376
455.827698 80.175 -0.7354
459.130798 80.144 -0.5098
462.457855 80.119 -0.2719
465.809021 80.099 -0.0208
469.184448 80.082 0.2423
472.584381 80.069 0.5132
476.008911 80.063 0.7876
479.458252 80.062 1.0641
482.932617 80.062 1.3390
486.432159 80.066 1.6141
489.957031 80.076 1.8928
493.507477 80.091 2.1672
497.083618 80.111 2.4317
500.685699 80.137 2.6832
504.313873 80.167 2.9187
507.968323 80.203 3.1323
511.649292 80.244 3.3189
515.356934 80.290 3.4735
519.091370 80.338 3.5890
522.852966 80.388 3.6678
526.641724 80.438 3.7105
530.458008 80.490 3.7160
534.301941 80.543 3.6834
538.173706 80.596 3.6123
542.073547 80.647 3.5012
546.001648 80.696 3.3526
549.958191 80.743 3.1691
553.943420 80.789 2.9488
557.957520 80.833 2.6908
562.000671 80.874 2.3941
566.073181 80.911 2.0570
570.175171 80.944 1.6803
574.306885 80.971 1.2637
578.468567 80.992 0.8086
582.660400 81.005 0.3143
586.882568 81.009 -0.2121
591.135376 81.003 -0.7674
595.419006 80.984 -1.3400
599.733643 80.951 -1.9232
604.079590 80.904 -2.4990
608.456970 80.841 -3.0537
612.866089 80.762 -3.5684
617.307190 80.668 -4.0239
621.780457 80.561 -4.4069
626.286133 80.443 -4.7019
630.824463 80.313 -4.8955
635.395691 80.174 -4.9715
640.000000 80.030 -4.9234
644.637695 79.886 -4.7343
649.309021 79.745 -4.4193
654.014160 79.616 -3.9824
658.753418 79.497 -3.4410
663.527039 79.392 -2.8071
668.335205 79.302 -2.1015
673.178284 79.233 -1.3396
678.056396 79.184 -0.5497
682.969849 79.156 0.2400
687.918945 79.146 1.0133
692.903870 79.151 1.7459
697.924927 79.168 2.4347
702.982422 79.194 3.0662
708.076477 79.226 3.6470
713.207520 79.261 4.1765
718.375732 79.298 4.6623
723.581360 79.337 5.1093
728.824707 79.376 5.5246
734.106079 79.414 5.9144
739.425720 79.453 6.2857
744.783936 79.491 6.6474
750.180908 79.531 6.9998
755.617065 79.574 7.3476
761.092529 79.621 7.6858
766.607727 79.672 8.0140
772.162903 79.729 8.3229
777.758301 79.791 8.6063
783.394287 79.859 8.8552
789.071045 79.931 9.0601
794.789001 80.007 9.2165
800.548340 80.084 9.3160
806.349487 80.161 9.3609
812.192627 80.235 9.3469
818.078125 80.304 9.2863
824.006226 80.365 9.1858
829.977295 80.419 9.0585
835.991699 80.467 8.9159
842.049622 80.508 8.7695
848.151428 80.542 8.6335
854.297485 80.572 8.5114
860.488098 80.602 8.4156
866.723572 80.633 8.3333
873.004211 80.669 8.2603
879.330322 80.709 8.1823
885.702332 80.754 8.0879
892.120483 80.803 7.9645
898.585144 80.857 7.7981
905.096680 80.912 7.5819
911.655396 80.965 7.3014
918.261597 81.015 6.9653
924.915710 81.056 6.5729
931.618042 81.089 6.1386
938.368896 81.110 5.6700
945.168762 81.120 5.1878
952.017822 81.115 4.7109
958.916504 81.099 4.2527
965.865234 81.075 3.8336
972.864319 81.044 3.4523
979.914062 81.010 3.1167
987.014954 80.973 2.8191
994.167236 80.937 2.5586
1001.371399 80.903 2.3218
1008.627747 80.873 2.0997
1015.936646 80.846 1.8770
1023.298584 80.822 1.6378
1030.713867 80.799 1.3739
1038.182739 80.776 1.0696
1045.705933 80.747 0.7315
1053.283447 80.709 0.3540
1060.916016 80.660 -0.0423
1068.603882 80.597 -0.4458
1076.347412 80.519 -0.8335
1084.147095 80.425 -1.1858
