* Measurement data measured by REW V5.20.13
* Source: C:\Users\kurin\Desktop\Targets and Curves\Resolve\Img\Files\audeze crbn_SPL.txt
* Format: Comma/Tab/Space delimited data
* Dated: Aug 14, 2023 2:56:42 PM
* REW Settings:
*  C-weighting compensation: Off
*  Target level: 75.0 dB
* Note: ; Measurement imported from C:\Users\kurin\Desktop\Targets and Curves\Resolve\Img\Files\audeze crbn_SPL.txt Format: Comma/Tab/Space delimited data 623 values loaded, 5 Hz to 39,792 Hz log spaced 
* Measurement: audeze crbn_SPL
* Smoothing: 1/48 octave
* Frequency Step: 1/96 octave
* Start Frequency: 5.000 Hz
*
* Freq(Hz) SPL(dB) Phase(degrees)
5.000000 84.052 0.5710
5.036232 84.052 0.5729
5.072727 84.052 0.5750
5.109486 84.052 0.5773
5.146511 84.052 0.5800
5.183805 84.052 0.5833
5.221369 84.052 0.5870
5.259205 84.052 0.5909
5.297316 84.052 0.5950
5.335702 84.052 0.5989
5.374367 84.052 0.6030
5.413311 84.052 0.6074
5.452538 84.052 0.6120
5.492050 84.052 0.6165
5.531847 84.052 0.6210
5.571934 84.052 0.6254
5.612310 84.052 0.6300
5.652979 84.052 0.6350
5.693943 84.052 0.6400
5.735204 84.052 0.6445
5.776763 84.052 0.6490
5.818624 84.052 0.6540
5.860788 84.052 0.6590
5.903258 84.052 0.6635
5.946035 84.052 0.6680
5.989123 84.052 0.6729
6.032523 84.052 0.6780
6.076237 84.052 0.6830
6.120268 84.052 0.6880
6.164618 84.052 0.6929
6.209289 84.052 0.6980
6.254284 84.052 0.7035
6.299605 84.052 0.7090
6.345255 84.052 0.7140
6.391235 84.052 0.7190
6.437549 84.052 0.7244
6.484198 84.052 0.7300
6.531185 84.052 0.7356
6.578513 84.052 0.7410
6.626183 84.052 0.7459
6.674199 84.052 0.7510
6.722563 84.052 0.7569
6.771278 84.052 0.7630
6.820345 84.052 0.7686
6.869768 84.052 0.7740
6.919549 84.052 0.7794
6.969691 84.052 0.7850
7.020196 84.052 0.7909
7.071068 84.052 0.7970
7.122308 84.052 0.8030
7.173919 84.052 0.8090
7.225904 84.052 0.8150
7.278266 84.052 0.8210
7.331007 84.052 0.8270
7.384131 84.052 0.8330
7.437639 84.052 0.8389
7.491535 84.052 0.8450
7.545822 84.052 0.8515
7.600502 84.052 0.8580
7.655579 84.052 0.8640
7.711054 84.052 0.8700
7.766932 84.052 0.8764
7.823214 84.052 0.8830
7.879904 84.052 0.8894
7.937005 84.052 0.8960
7.994520 84.052 0.9030
8.052452 84.052 0.9100
8.110803 84.052 0.9165
8.169578 84.052 0.9230
8.228777 84.052 0.9299
8.288406 84.052 0.9370
8.348468 84.052 0.9440
8.408964 84.052 0.9510
8.469899 84.052 0.9579
8.531276 84.052 0.9650
8.593097 84.052 0.9725
8.655366 84.052 0.9800
8.718086 84.052 0.9870
8.781260 84.052 0.9940
8.844893 84.052 1.0014
8.908987 84.052 1.0090
8.973545 84.052 1.0165
9.038571 84.052 1.0240
9.104069 84.052 1.0314
9.170040 84.052 1.0390
9.236490 84.052 1.0469
9.303422 84.052 1.0550
9.370838 84.052 1.0630
9.438744 84.052 1.0710
9.507140 84.052 1.0790
9.576033 84.052 1.0870
9.645425 84.052 1.0949
9.715320 84.052 1.1030
9.785721 84.052 1.1115
9.856632 84.052 1.1200
9.928058 84.052 1.1279
10.000000 84.052 1.1360
10.072464 84.052 1.1449
10.145453 84.052 1.1540
10.218971 84.052 1.1625
10.293022 84.052 1.1710
10.367610 84.052 1.1799
10.442738 84.052 1.1890
10.518411 84.052 1.1980
10.594631 84.052 1.2070
10.671404 84.052 1.2160
10.748734 84.052 1.2250
10.826623 84.052 1.2339
10.905077 84.052 1.2430
10.984100 84.052 1.2524
11.063695 84.052 1.2620
11.143867 84.052 1.2714
11.224621 84.052 1.2810
11.305959 84.052 1.2910
11.387886 84.052 1.3010
11.470407 84.052 1.3104
11.553527 84.052 1.3200
11.637249 84.052 1.3304
11.721577 84.052 1.3410
11.806517 84.052 1.3510
11.892071 84.052 1.3610
11.978246 84.052 1.3714
12.065045 84.052 1.3820
12.152473 84.052 1.3925
12.240536 84.052 1.4030
12.329235 84.052 1.4134
12.418578 84.052 1.4240
12.508568 84.052 1.4349
12.599211 84.052 1.4460
12.690510 84.052 1.4575
12.782471 84.052 1.4690
12.875097 84.052 1.4800
12.968395 84.052 1.4910
13.062370 84.052 1.5024
13.157025 84.052 1.5140
13.252366 84.052 1.5259
13.348398 84.052 1.5380
13.445127 84.052 1.5500
13.542556 84.052 1.5620
13.640691 84.052 1.5739
13.739536 84.052 1.5860
13.839099 84.052 1.5984
13.939383 84.052 1.6110
14.040393 84.052 1.6235
14.142136 84.052 1.6360
14.244616 84.052 1.6484
14.347837 84.052 1.6610
14.451808 84.052 1.6739
14.556532 84.052 1.6870
14.662014 84.052 1.7004
14.768262 84.052 1.7140
14.875278 84.052 1.7275
14.983070 84.052 1.7410
15.091644 84.052 1.7544
15.201005 84.052 1.7680
15.311157 84.052 1.7819
15.422109 84.052 1.7960
15.533863 84.052 1.8104
15.646428 84.052 1.8250
15.759809 84.052 1.8394
15.874010 84.052 1.8540
15.989040 84.052 1.8689
16.104904 84.052 1.8840
16.221605 84.052 1.8989
16.339155 84.052 1.9140
16.457554 84.052 1.9294
16.576813 84.052 1.9450
16.696936 84.052 1.9604
16.817928 84.052 1.9760
16.939798 84.052 1.9919
17.062551 84.052 2.0080
17.186193 84.052 2.0244
17.310732 84.052 2.0410
17.436172 84.052 2.0574
17.562521 84.052 2.0740
17.689787 84.052 2.0914
17.817974 84.052 2.1090
17.947090 84.052 2.1264
18.077143 84.052 2.1440
18.208138 84.052 2.1619
18.340080 84.052 2.1800
18.472980 84.052 2.1979
18.606844 84.052 2.2160
18.741676 84.052 2.2348
18.877487 84.052 2.2540
19.014280 84.052 2.2734
19.152065 84.052 2.2930
19.290850 84.052 2.3124
19.430639 84.052 2.3320
19.571442 84.052 2.3524
19.713264 84.052 2.3730
19.856115 84.052 2.3934
20.000000 84.052 2.4140
20.144928 84.052 2.4353
20.290907 84.052 2.4570
20.437943 84.052 2.4788
20.586044 84.052 2.5010
20.735220 84.052 2.5238
20.885475 84.052 2.5470
21.036821 84.052 2.5703
21.189262 84.052 2.5940
21.342808 84.052 2.6183
21.497467 84.052 2.6430
21.653246 84.052 2.6678
21.810154 84.052 2.6930
21.968201 84.052 2.7187
22.127390 84.052 2.7450
22.287735 84.052 2.7722
22.449242 84.052 2.8000
22.611917 84.052 2.8282
22.775772 84.052 2.8570
22.940815 84.052 2.8866
23.107054 84.052 2.9170
23.274498 84.052 2.9480
23.443153 84.052 2.9800
23.613033 84.052 3.0133
23.784142 84.052 3.0480
23.956491 84.052 3.0837
24.130091 84.052 3.1210
24.304947 84.052 3.1597
24.481071 84.052 3.2009
24.658470 84.052 3.2458
24.837156 84.052 3.2939
25.017136 84.053 3.3453
25.198421 84.054 3.3999
25.381020 84.055 3.4588
25.564941 84.058 3.5189
25.750195 84.063 3.5793
25.936790 84.070 3.6359
26.124741 84.078 3.6845
26.314051 84.087 3.7259
26.504732 84.095 3.7597
26.696796 84.103 3.7860
26.890253 84.112 3.8044
27.085112 84.120 3.8160
27.281382 84.126 3.8199
27.479073 84.131 3.8210
27.678198 84.134 3.8234
27.878765 84.136 3.8290
28.080786 84.137 3.8410
28.284271 84.138 3.8590
28.489231 84.139 3.8835
28.695675 84.140 3.9140
28.903616 84.142 3.9509
29.113064 84.145 3.9909
29.324028 84.150 4.0323
29.536524 84.156 4.0710
29.750557 84.164 4.1023
29.966141 84.173 4.1270
30.183289 84.181 4.1442
30.402010 84.189 4.1540
30.622314 84.198 4.1556
30.844217 84.206 4.1500
31.067726 84.212 4.1367
31.292856 84.217 4.1200
31.519617 84.220 4.1038
31.748020 84.222 4.0890
31.978081 84.223 4.0783
32.209808 84.224 4.0710
32.443211 84.224 4.0673
32.678310 84.224 4.0670
32.915108 84.224 4.0706
33.153625 84.224 4.0770
33.393871 84.224 4.0855
33.635857 84.224 4.0960
33.879597 84.224 4.1077
34.125103 84.224 4.1210
34.372387 84.224 4.1363
34.621464 84.224 4.1530
34.872345 84.224 4.1704
35.125042 84.224 4.1890
35.379574 84.224 4.2092
35.635948 84.224 4.2310
35.894180 84.224 4.2543
36.154285 84.224 4.2790
36.416275 84.224 4.3047
36.680161 84.224 4.3320
36.945961 84.224 4.3610
37.213688 84.224 4.3920
37.483353 84.224 4.4251
37.754974 84.224 4.4609
38.028561 84.224 4.5003
38.304131 84.224 4.5429
38.581699 84.225 4.5892
38.861279 84.226 4.6389
39.142883 84.228 4.6932
39.426529 84.231 4.7489
39.712231 84.236 4.8047
40.000000 84.243 4.8569
40.289856 84.251 4.9016
40.581814 84.259 4.9390
40.875885 84.267 4.9679
41.172089 84.276 4.9890
41.470440 84.284 5.0020
41.770950 84.292 5.0080
42.073643 84.299 5.0061
42.378525 84.304 5.0010
42.685616 84.307 4.9967
42.994934 84.308 4.9940
43.306492 84.309 4.9952
43.620308 84.310 5.0000
43.936401 84.310 5.0090
44.254780 84.310 5.0220
44.575470 84.310 5.0393
44.898483 84.310 5.0600
45.223835 84.310 5.0832
45.551544 84.310 5.1090
45.881630 84.310 5.1371
46.214108 84.310 5.1680
46.548996 84.310 5.2018
46.886307 84.310 5.2389
47.226067 84.310 5.2799
47.568283 84.310 5.3249
47.912983 84.311 5.3749
48.260181 84.312 5.4289
48.609894 84.314 5.4869
48.962143 84.317 5.5469
49.316940 84.322 5.6083
49.674313 84.329 5.6669
50.034271 84.337 5.7182
50.396843 84.345 5.7629
50.762039 84.353 5.8004
51.129883 84.362 5.8310
51.500389 84.370 5.8539
51.873581 84.378 5.8710
52.249481 84.385 5.8821
52.628101 84.390 5.8920
53.009464 84.393 5.9048
53.393593 84.395 5.9220
53.780506 84.397 5.9467
54.170223 84.399 5.9779
54.562763 84.400 6.0167
54.958145 84.403 6.0599
55.356396 84.408 6.1066
55.757530 84.415 6.1519
56.161572 84.423 6.1908
56.568542 84.431 6.2240
56.978462 84.439 6.2503
57.391350 84.448 6.2700
57.807232 84.456 6.2825
58.226128 84.464 6.2890
58.648056 84.471 6.2887
59.073048 84.476 6.2860
59.501114 84.479 6.2847
59.932281 84.481 6.2860
60.366577 84.482 6.2921
60.804020 84.483 6.3030
61.244629 84.483 6.3195
61.688435 84.483 6.3410
62.135452 84.483 6.3672
62.585712 84.483 6.3979
63.039234 84.483 6.4326
63.496040 84.483 6.4719
63.956161 84.483 6.5164
64.419617 84.483 6.5659
64.886421 84.483 6.6208
65.356621 84.484 6.6809
65.830215 84.485 6.7470
66.307251 84.488 6.8169
66.787743 84.492 6.8895
67.271713 84.498 6.9619
67.759193 84.506 7.0307
68.250206 84.514 7.0959
68.744774 84.522 7.1559
69.242928 84.530 7.2119
69.744690 84.539 7.2642
70.250084 84.547 7.3139
70.759148 84.555 7.3608
71.271896 84.562 7.4089
71.788361 84.567 7.4625
72.308571 84.573 7.5209
72.832550 84.580 7.5862
73.360321 84.588 7.6549
73.891922 84.597 7.7244
74.427376 84.608 7.7939
74.966705 84.619 7.8621
75.509949 84.632 7.9269
76.057121 84.647 7.9862
76.608261 84.662 8.0389
77.163399 84.677 8.0814
77.722557 84.692 8.1189
78.285767 84.705 8.1561
78.853058 84.718 8.1919
79.424461 84.733 8.2279
80.000000 84.748 8.2619
80.579712 84.763 8.2921
81.163628 84.778 8.3199
81.751770 84.794 8.3474
82.344177 84.810 8.3710
82.940880 84.828 8.3871
83.541901 84.847 8.3970
84.147285 84.864 8.4002
84.757050 84.880 8.3980
85.371231 84.897 8.3923
85.989868 84.915 8.3810
86.612984 84.932 8.3622
87.240616 84.949 8.3381
87.872803 84.964 8.3111
88.509560 84.979 8.2791
89.150940 84.996 8.2412
89.796967 85.013 8.1961
90.447670 85.027 8.1404
91.103088 85.040 8.0791
91.763260 85.051 8.0156
92.428215 85.061 7.9511
93.097992 85.069 7.8871
93.772614 85.076 7.8261
94.452133 85.081 7.7710
95.136566 85.085 7.7231
95.825966 85.088 7.6856
96.520363 85.092 7.6551
97.219788 85.098 7.6304
97.924286 85.105 7.6071
98.633881 85.113 7.5802
99.348625 85.121 7.5501
100.068542 85.129 7.5156
100.793686 85.138 7.4761
101.524078 85.146 7.4298
102.259766 85.154 7.3781
103.000778 85.161 7.3206
103.747162 85.166 7.2611
104.498962 85.169 7.2028
105.256203 85.170 7.1471
106.018929 85.171 7.0969
106.787186 85.172 7.0511
107.561012 85.172 7.0094
108.340446 85.172 6.9721
109.125526 85.172 6.9394
109.916290 85.172 6.9101
110.712791 85.172 6.8829
111.515060 85.172 6.8580
112.323143 85.172 6.8355
113.137085 85.172 6.8150
113.956924 85.172 6.7962
114.782700 85.172 6.7790
115.614464 85.172 6.7633
116.452255 85.172 6.7490
117.296112 85.172 6.7364
118.146095 85.172 6.7250
119.002228 85.172 6.7144
119.864563 85.172 6.7050
120.733154 85.172 6.6975
121.608040 85.172 6.6910
122.489258 85.172 6.6851
123.376869 85.172 6.6800
124.270905 85.172 6.6760
125.171425 85.172 6.6730
126.078468 85.172 6.6710
126.992081 85.172 6.6700
127.912323 85.172 6.6701
128.839233 85.172 6.6710
129.772842 85.172 6.6726
130.713242 85.172 6.6750
131.660431 85.172 6.6786
132.614502 85.172 6.6830
133.575485 85.172 6.6881
134.543427 85.172 6.6940
135.518387 85.172 6.7005
136.500412 85.172 6.7080
137.489548 85.172 6.7166
138.485855 85.172 6.7260
139.489380 85.172 6.7356
140.500168 85.172 6.7460
141.518295 85.172 6.7575
142.543793 85.172 6.7700
143.576721 85.172 6.7830
144.617142 85.172 6.7970
145.665100 85.172 6.8121
146.720642 85.172 6.8280
147.783844 85.172 6.8441
148.854752 85.172 6.8610
149.933411 85.172 6.8790
151.019897 85.172 6.8980
152.114243 85.172 6.9179
153.216522 85.172 6.9389
154.326797 85.172 6.9609
155.445114 85.172 6.9839
156.571533 85.172 7.0079
157.706116 85.172 7.0329
158.848923 85.172 7.0587
160.000000 85.172 7.0859
161.159424 85.172 7.1151
162.327255 85.172 7.1459
163.503540 85.172 7.1779
164.688354 85.172 7.2119
165.881760 85.172 7.2486
167.083801 85.172 7.2879
168.294571 85.173 7.3301
169.514099 85.174 7.3749
170.742462 85.175 7.4228
171.979736 85.178 7.4709
173.225967 85.183 7.5168
174.481232 85.188 7.5589
175.745605 85.193 7.5940
177.019119 85.198 7.6239
178.301880 85.203 7.6494
179.593933 85.207 7.6709
180.895340 85.211 7.6876
182.206177 85.213 7.7040
183.526520 85.213 7.7239
184.856430 85.212 7.7489
186.195984 85.212 7.7829
187.545227 85.212 7.8229
188.904266 85.213 7.8679
190.273132 85.214 7.9169
191.651932 85.216 7.9695
193.040726 85.219 8.0219
194.439575 85.225 8.0704
195.848572 85.231 8.1139
197.267761 85.237 8.1491
198.697250 85.242 8.1789
200.137085 85.247 8.2048
201.587372 85.251 8.2279
203.048157 85.254 8.2492
204.519531 85.256 8.2709
206.001556 85.257 8.2959
207.494324 85.258 8.3239
208.997925 85.259 8.3560
210.512405 85.259 8.3919
212.037857 85.259 8.4319
213.574371 85.259 8.4759
215.122025 85.259 8.5236
216.680893 85.259 8.5759
218.251053 85.259 8.6335
219.832581 85.259 8.6958
221.425583 85.260 8.7626
223.030121 85.261 8.8338
224.646286 85.263 8.9102
226.274170 85.267 8.9888
227.913849 85.273 9.0676
229.565399 85.280 9.1438
231.228928 85.288 9.2136
232.904510 85.296 9.2778
234.592224 85.305 9.3358
236.292191 85.313 9.3889
238.004456 85.321 9.4379
239.729126 85.328 9.4839
241.466309 85.335 9.5269
243.216080 85.341 9.5709
244.978516 85.345 9.6205
246.753738 85.350 9.6738
248.541809 85.356 9.7321
250.342850 85.363 9.7908
252.156937 85.371 9.8459
253.984161 85.380 9.8979
255.824646 85.388 9.9463
257.678467 85.396 9.9909
259.545685 85.405 10.0305
261.426483 85.413 10.0669
263.320862 85.419 10.1002
265.229004 85.424 10.1349
267.150970 85.428 10.1752
269.086853 85.431 10.2219
271.036774 85.434 10.2781
273.000824 85.438 10.3408
274.979095 85.443 10.4092
276.971710 85.450 10.4798
278.978760 85.458 10.5491
281.000336 85.466 10.6168
283.036591 85.475 10.6813
285.087585 85.485 10.7428
287.153442 85.495 10.8013
289.234283 85.505 10.8559
291.330200 85.516 10.9044
293.441284 85.526 10.9499
295.567688 85.535 10.9946
297.709503 85.543 11.0389
299.866821 85.552 11.0838
302.039795 85.560 11.1289
304.228485 85.568 11.1734
306.433044 85.575 11.2189
308.653595 85.583 11.2666
310.890228 85.590 11.3169
313.143066 85.596 11.3708
315.412231 85.603 11.4278
317.697845 85.611 11.4885
320.000000 85.620 11.5508
322.318848 85.629 11.6127
324.654510 85.638 11.6748
327.007080 85.647 11.7373
329.376709 85.657 11.7998
331.763519 85.667 11.8626
334.167603 85.678 11.9238
336.589142 85.689 11.9815
339.028198 85.701 12.0368
341.484924 85.712 12.0895
343.959473 85.723 12.1419
346.451935 85.733 12.1965
348.962463 85.743 12.2528
351.491211 85.753 12.3113
354.038239 85.764 12.3708
356.603760 85.776 12.4302
359.187866 85.788 12.4898
361.790680 85.800 12.5489
364.412354 85.811 12.6098
367.053040 85.822 12.6755
369.712860 85.834 12.7428
372.391968 85.848 12.8105
375.090454 85.864 12.8758
377.808533 85.880 12.9346
380.546265 85.897 12.9888
383.303864 85.913 13.0391
386.081451 85.930 13.0849
388.879150 85.948 13.1258
391.697144 85.965 13.1619
394.535522 85.981 13.1913
397.394501 85.997 13.2189
400.274170 86.011 13.2505
403.174744 86.026 13.2819
406.096313 86.043 13.3113
409.039062 86.061 13.3379
412.003113 86.077 13.3590
414.988647 86.092 13.3779
417.995850 86.107 13.3987
421.024811 86.123 13.4169
424.075714 86.140 13.4293
427.148743 86.157 13.4370
430.244049 86.172 13.4385
433.361786 86.186 13.4390
436.502106 86.199 13.4444
439.665161 86.212 13.4510
442.851166 86.227 13.4577
446.060242 86.242 13.4630
449.292572 86.256 13.4654
452.548340 86.270 13.4640
455.827698 86.286 13.4578
459.130798 86.302 13.4451
462.457855 86.317 13.4228
465.809021 86.330 13.3941
469.184448 86.342 13.3600
472.584381 86.352 13.3231
476.008911 86.361 13.2858
479.458252 86.368 13.2501
482.932617 86.373 13.2182
486.432159 86.376 13.1921
489.957031 86.377 13.1748
493.507477 86.378 13.1660
497.083618 86.379 13.1667
500.685699 86.379 13.1760
504.313873 86.379 13.1929
507.968323 86.379 13.2179
511.649292 86.379 13.2513
515.356934 86.379 13.2928
519.091370 86.379 13.3421
522.852966 86.379 13.3998
526.641724 86.380 13.4668
530.458008 86.381 13.5427
534.301941 86.383 13.6283
538.173706 86.386 13.7217
542.073547 86.391 13.8225
546.001648 86.398 13.9276
549.958191 86.406 14.0338
553.943420 86.416 14.1416
557.957520 86.427 14.2519
562.000671 86.440 14.3616
566.073181 86.456 14.4698
570.175171 86.473 14.5717
574.306885 86.492 14.6613
578.468567 86.512 14.7407
582.660400 86.531 14.8089
586.882568 86.550 14.8688
591.135376 86.569 14.9229
595.419006 86.587 14.9718
599.733643 86.604 15.0159
604.079590 86.620 15.0579
608.456970 86.635 15.1002
612.866089 86.650 15.1438
617.307190 86.664 15.1905
621.780457 86.679 15.2398
626.286133 86.694 15.2931
630.824463 86.709 15.3478
635.395691 86.725 15.4023
640.000000 86.742 15.4548
644.637695 86.759 15.5022
649.309021 86.775 15.5469
654.014160 86.791 15.5896
658.753418 86.807 15.6319
663.527039 86.822 15.6754
668.335205 86.837 15.7198
673.178284 86.851 15.7656
678.056396 86.866 15.8128
682.969849 86.881 15.8621
687.918945 86.896 15.9128
692.903870 86.910 15.9646
697.924927 86.925 16.0178
702.982422 86.940 16.0725
708.076477 86.955 16.1288
713.207520 86.970 16.1868
718.375732 86.984 16.2468
723.581360 86.998 16.3087
728.824707 87.013 16.3728
734.106079 87.028 16.4386
739.425720 87.043 16.5077
744.783936 87.057 16.5816
750.180908 87.071 16.6597
755.617065 87.086 16.7416
761.092529 87.102 16.8287
766.607727 87.116 16.9224
772.162903 87.131 17.0216
777.758301 87.148 17.1267
783.394287 87.167 17.2346
789.071045 87.186 17.3407
794.789001 87.205 17.4506
800.548340 87.222 17.5694
806.349487 87.241 17.6936
812.192627 87.264 17.8222
818.078125 87.289 17.9525
824.006226 87.313 18.0787
829.977295 87.336 18.2095
835.991699 87.358 18.3535
842.049622 87.382 18.5054
848.151428 87.411 18.6620
854.297485 87.442 18.8254
860.488098 87.470 18.9966
866.723572 87.501 19.1763
873.004211 87.538 19.3702
879.330322 87.581 19.5643
885.702332 87.629 19.7465
892.120483 87.682 19.9164
898.585144 87.735 20.0701
905.096680 87.792 20.2065
911.655396 87.852 20.3243
918.261597 87.915 20.4207
924.915710 87.978 20.4903
931.618042 88.042 20.5399
938.368896 88.104 20.5733
945.168762 88.166 20.5939
952.017822 88.229 20.6074
958.916504 88.293 20.6100
965.865234 88.359 20.6020
972.864319 88.428 20.5771
979.914062 88.499 20.5292
987.014954 88.571 20.4583
994.167236 88.643 20.3628
1001.371399 88.715 20.2415
1008.627747 88.788 20.0929
1015.936646 88.861 19.9168
1023.298584 88.931 19.7109
1030.713867 89.000 19.4798
1038.182739 89.066 19.2271
1045.705933 89.130 18.9532
1053.283447 89.192 18.6591
1060.916016 89.251 18.3464
1068.603882 89.306 18.0168
1076.347412 89.359 17.6714
1084.147095 89.409 17.3100
1092.003296 89.455 16.9383
1099.916382 89.495 16.5603
1107.886841 89.532 16.1806
1115.915039 89.565 15.8062
1124.001343 89.596 15.4344
1132.146362 89.627 15.0656
1140.350342 89.656 14.6974
1148.613770 89.683 14.3283
1156.937134 89.710 13.9566
