* Measurement data measured by REW V5.20.13
* Source: C:\Users\kurin\Desktop\Targets and Curves\Resolve\Img\Files\Meze Liric_SPL.txt
* Format: Comma/Tab/Space delimited data
* Dated: Aug 15, 2023 12:12:02 AM
* REW Settings:
*  C-weighting compensation: Off
*  Target level: 75.0 dB
* Note: ; Measurement imported from C:\Users\kurin\Desktop\Targets and Curves\Resolve\Img\Files\Meze Liric_SPL.txt Format: Comma/Tab/Space delimited data 623 values loaded, 5 Hz to 39,792 Hz log spaced 
* Measurement: Meze Liric_SPL
* Smoothing: 1/48 octave
* Frequency Step: 1/96 octave
* Start Frequency: 5.000 Hz
*
* Freq(Hz) SPL(dB) Phase(degrees)
5.000000 86.851 21.2130
5.036232 86.858 21.2033
5.072727 86.866 21.1930
5.109486 86.875 21.1814
5.146511 86.886 21.1680
5.183805 86.899 21.1516
5.221369 86.913 21.1340
5.259205 86.928 21.1169
5.297316 86.943 21.0990
5.335702 86.959 21.0793
5.374367 86.976 21.0590
5.413311 86.993 21.0395
5.452538 87.009 21.0200
5.492050 87.025 21.0001
5.531847 87.042 20.9800
5.571934 87.058 20.9601
5.612310 87.075 20.9400
5.652979 87.091 20.9196
5.693943 87.108 20.8990
5.735204 87.124 20.8781
5.776763 87.141 20.8570
5.818624 87.158 20.8360
5.860788 87.174 20.8150
5.903258 87.190 20.7941
5.946035 87.207 20.7730
5.989123 87.223 20.7516
6.032523 87.240 20.7300
6.076237 87.257 20.7081
6.120268 87.273 20.6860
6.164618 87.289 20.6636
6.209289 87.306 20.6410
6.254284 87.322 20.6185
6.299605 87.339 20.5960
6.345255 87.355 20.5736
6.391235 87.372 20.5510
6.437549 87.388 20.5276
6.484198 87.405 20.5040
6.531185 87.422 20.4806
6.578513 87.438 20.4570
6.626183 87.454 20.4331
6.674199 87.471 20.4090
6.722563 87.487 20.3851
6.771278 87.504 20.3610
6.820345 87.520 20.3366
6.869768 87.537 20.3120
6.919549 87.553 20.2871
6.969691 87.570 20.2620
7.020196 87.586 20.2366
7.071068 87.603 20.2110
7.122308 87.620 20.1856
7.173919 87.637 20.1600
7.225904 87.654 20.1341
7.278266 87.670 20.1080
7.331007 87.686 20.0816
7.384131 87.703 20.0550
7.437639 87.719 20.0281
7.491535 87.736 20.0010
7.545822 87.752 19.9741
7.600502 87.769 19.9470
7.655579 87.785 19.9196
7.711054 87.802 19.8920
7.766932 87.818 19.8641
7.823214 87.835 19.8360
7.879904 87.851 19.8076
7.937005 87.868 19.7790
7.994520 87.884 19.7501
8.052452 87.901 19.7210
8.110803 87.917 19.6916
8.169578 87.934 19.6620
8.228777 87.950 19.6326
8.288406 87.967 19.6030
8.348468 87.983 19.5726
8.408964 88.000 19.5420
8.469899 88.016 19.5116
8.531276 88.033 19.4810
8.593097 88.049 19.4502
8.655366 88.066 19.4190
8.718086 88.082 19.3871
8.781260 88.099 19.3550
8.844893 88.115 19.3231
8.908987 88.132 19.2910
8.973545 88.148 19.2586
9.038571 88.165 19.2260
9.104069 88.181 19.1932
9.170040 88.198 19.1600
9.236490 88.214 19.1261
9.303422 88.231 19.0920
9.370838 88.247 19.0581
9.438744 88.264 19.0240
9.507140 88.280 18.9896
9.576033 88.297 18.9550
9.645425 88.313 18.9202
9.715320 88.330 18.8850
9.785721 88.346 18.8491
9.856632 88.363 18.8130
9.928058 88.379 18.7771
10.000000 88.396 18.7410
10.072464 88.412 18.7042
10.145453 88.429 18.6670
10.218971 88.445 18.6297
10.293022 88.462 18.5920
10.367610 88.479 18.5541
10.442738 88.495 18.5160
10.518411 88.511 18.4777
10.594631 88.528 18.4390
10.671404 88.544 18.3996
10.748734 88.561 18.3600
10.826623 88.577 18.3206
10.905077 88.594 18.2810
10.984100 88.610 18.2407
11.063695 88.627 18.2000
11.143867 88.643 18.1592
11.224621 88.660 18.1180
11.305959 88.676 18.0762
11.387886 88.693 18.0340
11.470407 88.709 17.9916
11.553527 88.726 17.9490
11.637249 88.742 17.9062
11.721577 88.759 17.8630
11.806517 88.775 17.8192
11.892071 88.792 17.7750
11.978246 88.808 17.7306
12.065045 88.825 17.6860
12.152473 88.841 17.6412
12.240536 88.858 17.5960
12.329235 88.874 17.5503
12.418578 88.891 17.5040
12.508568 88.907 17.4572
12.599211 88.924 17.4100
12.690510 88.940 17.3627
12.782471 88.957 17.3150
12.875097 88.973 17.2672
12.968395 88.990 17.2190
13.062370 89.007 17.1703
13.157025 89.024 17.1210
13.252366 89.041 17.0713
13.348398 89.057 17.0210
13.445127 89.073 16.9702
13.542556 89.090 16.9191
13.640691 89.106 16.8677
13.739536 89.123 16.8160
13.839099 89.139 16.7637
13.939383 89.156 16.7110
14.040393 89.172 16.6583
14.142136 89.189 16.6050
14.244616 89.205 16.5508
14.347837 89.222 16.4960
14.451808 89.238 16.4413
14.556532 89.255 16.3860
14.662014 89.271 16.3298
14.768262 89.288 16.2731
14.875278 89.304 16.2163
14.983070 89.321 16.1591
15.091644 89.337 16.1008
15.201005 89.354 16.0420
15.311157 89.370 15.9833
15.422109 89.387 15.9240
15.533863 89.403 15.8638
15.646428 89.420 15.8030
15.759809 89.436 15.7423
15.874010 89.453 15.6810
15.989040 89.469 15.6189
16.104904 89.486 15.5561
16.221605 89.502 15.4923
16.339155 89.519 15.4281
16.457554 89.535 15.3638
16.576813 89.552 15.2990
16.696936 89.568 15.2334
16.817928 89.585 15.1670
16.939798 89.601 15.1003
17.062551 89.618 15.0331
17.186193 89.634 14.9654
17.310732 89.651 14.8970
17.436172 89.667 14.8279
17.562521 89.684 14.7581
17.689787 89.700 14.6879
17.817974 89.717 14.6171
17.947090 89.733 14.5454
18.077143 89.750 14.4730
18.208138 89.766 14.4003
18.340080 89.783 14.3271
18.472980 89.799 14.2532
18.606844 89.816 14.1790
18.741676 89.832 14.1046
18.877487 89.849 14.0301
19.014280 89.865 13.9556
19.152065 89.882 13.8811
19.290850 89.899 13.8062
19.430639 89.916 13.7310
19.571442 89.933 13.6561
19.713264 89.951 13.5801
19.856115 89.970 13.5022
20.000000 89.989 13.4211
20.144928 90.008 13.3348
20.290907 90.027 13.2441
20.437943 90.046 13.1490
20.586044 90.065 13.0491
20.735220 90.084 12.9432
20.885475 90.102 12.8331
21.036821 90.119 12.7184
21.189262 90.134 12.6041
21.342808 90.148 12.4959
21.497467 90.161 12.3921
21.653246 90.175 12.2932
21.810154 90.190 12.1981
21.968201 90.204 12.1064
22.127390 90.219 12.0171
22.287735 90.236 11.9310
22.449242 90.254 11.8431
22.611917 90.274 11.7492
22.775772 90.295 11.6471
22.940815 90.316 11.5327
23.107054 90.337 11.4082
23.274498 90.357 11.2734
23.443153 90.376 11.1312
23.613033 90.394 10.9830
23.784142 90.410 10.8331
23.956491 90.423 10.6863
24.130091 90.436 10.5422
24.304947 90.449 10.4023
24.481071 90.463 10.2652
24.658470 90.476 10.1304
24.837156 90.489 9.9962
25.017136 90.504 9.8621
25.198421 90.520 9.7231
25.381020 90.537 9.5737
25.564941 90.554 9.4152
25.750195 90.569 9.2456
25.936790 90.582 9.0692
26.124741 90.594 8.8886
26.314051 90.604 8.7063
26.504732 90.612 8.5246
26.696796 90.618 8.3472
26.890253 90.622 8.1788
27.085112 90.625 8.0192
27.281382 90.628 7.8713
27.479073 90.632 7.7312
27.678198 90.637 7.5973
27.878765 90.644 7.4652
28.080786 90.652 7.3299
28.284271 90.661 7.1912
28.489231 90.669 7.0473
28.695675 90.678 6.8982
28.903616 90.687 6.7428
29.113064 90.695 6.5822
29.324028 90.702 6.4157
29.536524 90.707 6.2482
29.750557 90.710 6.0840
29.966141 90.712 5.9242
30.183289 90.714 5.7719
30.402010 90.716 5.6252
30.622314 90.718 5.4844
30.844217 90.721 5.3462
31.067726 90.726 5.2088
31.292856 90.733 5.0672
31.519617 90.740 4.9152
31.748020 90.747 4.7542
31.978081 90.753 4.5828
32.209808 90.758 4.4042
32.443211 90.761 4.2204
32.678310 90.762 4.0342
32.915108 90.761 3.8480
33.153625 90.757 3.6662
33.393871 90.752 3.4939
33.635857 90.745 3.3312
33.879597 90.738 3.1808
34.125103 90.731 3.0402
34.372387 90.725 2.9095
34.621464 90.720 2.7842
34.872345 90.717 2.6607
35.125042 90.716 2.5362
35.379574 90.715 2.4061
35.635948 90.714 2.2712
35.894180 90.713 2.1303
36.154285 90.712 1.9842
36.416275 90.710 1.8322
36.680161 90.707 1.6772
36.945961 90.702 1.5209
37.213688 90.695 1.3662
37.483353 90.687 1.2168
37.754974 90.678 1.0722
38.028561 90.669 0.9329
38.304131 90.659 0.7992
38.581699 90.648 0.6707
38.861279 90.637 0.5492
39.142883 90.625 0.4366
39.426529 90.613 0.3321
39.712231 90.602 0.2364
40.000000 90.591 0.1471
40.289856 90.581 0.0622
40.581814 90.572 -0.0179
40.875885 90.563 -0.0929
41.172089 90.555 -0.1639
41.470440 90.548 -0.2305
41.770950 90.543 -0.2969
42.073643 90.540 -0.3664
42.378525 90.538 -0.4409
42.685616 90.537 -0.5234
42.994934 90.536 -0.6139
43.306492 90.535 -0.7132
43.620308 90.534 -0.8208
43.936401 90.532 -0.9377
44.254780 90.529 -1.0608
44.575470 90.524 -1.1888
44.898483 90.517 -1.3178
45.223835 90.508 -1.4432
45.551544 90.498 -1.5658
45.881630 90.488 -1.6855
46.214108 90.476 -1.7998
46.548996 90.462 -1.9070
46.886307 90.447 -2.0049
47.226067 90.432 -2.0889
47.568283 90.418 -2.1649
47.912983 90.406 -2.2360
48.260181 90.395 -2.3049
48.609894 90.383 -2.3755
48.962143 90.372 -2.4469
49.316940 90.362 -2.5191
49.674313 90.351 -2.5929
50.034271 90.340 -2.6701
50.396843 90.327 -2.7479
50.762039 90.313 -2.8251
51.129883 90.297 -2.8979
51.500389 90.280 -2.9620
51.873581 90.262 -3.0179
52.249481 90.244 -3.0654
52.628101 90.225 -3.1029
53.009464 90.205 -3.1293
53.393593 90.185 -3.1440
53.780506 90.165 -3.1451
54.170223 90.146 -3.1350
54.562763 90.128 -3.1167
54.958145 90.110 -3.0871
55.356396 90.091 -3.0437
55.757530 90.073 -2.9871
56.161572 90.057 -2.9158
56.568542 90.043 -2.8331
56.978462 90.031 -2.7422
57.391350 90.021 -2.6432
57.807232 90.013 -2.5368
58.226128 90.007 -2.4252
58.648056 90.004 -2.3111
59.073048 90.003 -2.1942
59.501114 90.003 -2.0756
59.932281 90.004 -1.9532
60.366577 90.007 -1.8243
60.804020 90.012 -1.6912
61.244629 90.020 -1.5549
61.688435 90.032 -1.4172
62.135452 90.047 -1.2792
62.585712 90.065 -1.1452
63.039234 90.087 -1.0193
63.496040 90.112 -0.9042
63.956161 90.140 -0.8038
64.419617 90.171 -0.7181
64.886421 90.203 -0.6484
65.356621 90.237 -0.5951
65.830215 90.272 -0.5598
66.307251 90.309 -0.5410
66.787743 90.346 -0.5382
67.271713 90.383 -0.5500
67.759193 90.421 -0.5740
68.250206 90.461 -0.6129
68.744774 90.502 -0.6681
69.242928 90.544 -0.7408
69.744690 90.586 -0.8330
70.250084 90.628 -0.9448
70.759148 90.671 -1.0765
71.271896 90.714 -1.2297
71.788361 90.756 -1.4066
72.308571 90.798 -1.6046
72.832550 90.837 -1.8224
73.360321 90.875 -2.0585
73.891922 90.911 -2.3106
74.427376 90.945 -2.5805
74.966705 90.979 -2.8694
75.509949 91.010 -3.1764
76.057121 91.037 -3.5026
76.608261 91.061 -3.8433
77.163399 91.081 -4.1951
77.722557 91.097 -4.5553
78.285767 91.108 -4.9219
78.853058 91.115 -5.2883
79.424461 91.115 -5.6487
80.000000 91.111 -5.9973
80.579712 91.104 -6.3274
81.163628 91.093 -6.6364
81.751770 91.079 -6.9199
82.344177 91.064 -7.1775
82.940880 91.049 -7.4054
83.541901 91.035 -7.6096
84.147285 91.024 -7.7937
84.757050 91.015 -7.9607
85.371231 91.007 -8.1135
85.989868 91.003 -8.2567
86.612984 91.004 -8.3938
87.240616 91.008 -8.5317
87.872803 91.016 -8.6778
88.509560 91.027 -8.8337
89.150940 91.040 -9.0023
89.796967 91.055 -9.1876
90.447670 91.073 -9.3947
91.103088 91.092 -9.6225
91.763260 91.111 -9.8721
92.428215 91.129 -10.1424
93.097992 91.147 -10.4325
93.772614 91.164 -10.7433
94.452133 91.180 -11.0765
95.136566 91.195 -11.4292
95.825966 91.207 -11.7997
96.520363 91.217 -12.1871
97.219788 91.225 -12.5903
97.924286 91.230 -13.0091
98.633881 91.232 -13.4455
99.348625 91.229 -13.8921
100.068542 91.221 -14.3437
100.793686 91.208 -14.7959
101.524078 91.191 -15.2429
102.259766 91.171 -15.6829
103.000778 91.147 -16.1134
103.747162 91.120 -16.5302
104.498962 91.089 -16.9277
105.256203 91.056 -17.3073
106.018929 91.025 -17.6669
106.787186 90.994 -18.0123
107.561012 90.963 -18.3477
108.340446 90.933 -18.6755
109.125526 90.904 -18.9981
109.916290 90.877 -19.3204
110.712791 90.852 -19.6471
111.515060 90.828 -19.9813
112.323143 90.804 -20.3273
113.137085 90.780 -20.6862
113.956924 90.756 -21.0609
114.782700 90.730 -21.4500
115.614464 90.701 -21.8541
116.452255 90.670 -22.2702
117.296112 90.636 -22.6961
118.146095 90.598 -23.1291
119.002228 90.557 -23.5674
119.864563 90.511 -24.0058
120.733154 90.460 -24.4390
121.608040 90.405 -24.8661
122.489258 90.349 -25.2847
123.376869 90.289 -25.6940
124.270905 90.225 -26.0932
125.171425 90.157 -26.4793
126.078468 90.088 -26.8481
126.992081 90.016 -27.2032
127.912323 89.944 -27.5475
128.839233 89.869 -27.8783
129.772842 89.791 -28.1944
130.713242 89.710 -28.4944
131.660431 89.628 -28.7760
132.614502 89.545 -29.0413
133.575485 89.461 -29.2920
134.543427 89.375 -29.5266
135.518387 89.288 -29.7435
136.500412 89.199 -29.9436
137.489548 89.110 -30.1272
138.485855 89.019 -30.2946
139.489380 88.928 -30.4465
140.500168 88.835 -30.5817
141.518295 88.742 -30.6992
142.543793 88.648 -30.7988
143.576721 88.553 -30.8800
144.617142 88.457 -30.9419
145.665100 88.360 -30.9836
146.720642 88.262 -31.0040
147.783844 88.164 -31.0016
148.854752 88.066 -30.9761
149.933411 87.969 -30.9267
151.019897 87.871 -30.8532
152.114243 87.774 -30.7547
153.216522 87.678 -30.6324
154.326797 87.585 -30.4863
155.445114 87.493 -30.3194
156.571533 87.403 -30.1336
157.706116 87.316 -29.9315
158.848923 87.233 -29.7150
160.000000 87.152 -29.4876
161.159424 87.075 -29.2521
162.327255 87.000 -29.0115
163.503540 86.928 -28.7696
164.688354 86.858 -28.5265
165.881760 86.790 -28.2841
167.083801 86.722 -28.0416
168.294571 86.655 -27.7996
169.514099 86.589 -27.5556
170.742462 86.523 -27.3078
171.979736 86.457 -27.0547
173.225967 86.391 -26.7942
174.481232 86.325 -26.5256
175.745605 86.260 -26.2478
177.019119 86.195 -25.9597
178.301880 86.131 -25.6593
179.593933 86.068 -25.3478
180.895340 86.007 -25.0251
182.206177 85.948 -24.6938
183.526520 85.891 -24.3564
184.856430 85.836 -24.0138
186.195984 85.782 -23.6670
187.545227 85.730 -23.3178
188.904266 85.680 -22.9678
190.273132 85.632 -22.6179
191.651932 85.585 -22.2695
193.040726 85.538 -21.9220
194.439575 85.492 -21.5756
195.848572 85.446 -21.2290
197.267761 85.400 -20.8820
198.697250 85.353 -20.5319
200.137085 85.306 -20.1776
201.587372 85.257 -19.8139
203.048157 85.206 -19.4369
204.519531 85.153 -19.0412
206.001556 85.100 -18.6223
207.494324 85.046 -18.1731
208.997925 84.990 -17.6866
210.512405 84.936 -17.1593
212.037857 84.886 -16.5824
213.574371 84.842 -15.9655
215.122025 84.807 -15.3106
216.680893 84.781 -14.6319
218.251053 84.767 -13.9380
219.832581 84.766 -13.2480
221.425583 84.778 -12.5787
223.030121 84.802 -11.9446
224.646286 84.836 -11.3640
226.274170 84.876 -10.8413
227.913849 84.920 -10.3882
229.565399 84.966 -9.9999
231.228928 85.010 -9.6805
232.904510 85.050 -9.4147
234.592224 85.083 -9.1927
236.292191 85.111 -9.0025
238.004456 85.133 -8.8309
239.729126 85.150 -8.6724
241.466309 85.162 -8.5184
243.216080 85.170 -8.3644
244.978516 85.174 -8.2026
246.753738 85.176 -8.0345
248.541809 85.178 -7.8586
250.342850 85.179 -7.6765
252.156937 85.179 -7.4890
253.984161 85.179 -7.2975
255.824646 85.179 -7.1032
257.678467 85.179 -6.9075
259.545685 85.179 -6.7120
261.426483 85.179 -6.5175
263.320862 85.179 -6.3254
265.229004 85.179 -6.1355
267.150970 85.178 -5.9482
269.086853 85.176 -5.7635
271.036774 85.175 -5.5825
273.000824 85.172 -5.4025
274.979095 85.167 -5.2228
276.971710 85.160 -5.0396
278.978760 85.152 -4.8486
281.000336 85.143 -4.6505
283.036591 85.133 -4.4450
285.087585 85.123 -4.2317
287.153442 85.113 -4.0107
289.234283 85.102 -3.7796
291.330200 85.090 -3.5361
293.441284 85.077 -3.2797
295.567688 85.066 -3.0087
297.709503 85.055 -2.7248
299.866821 85.046 -2.4295
302.039795 85.038 -2.1219
304.228485 85.031 -1.8010
306.433044 85.026 -1.4690
308.653595 85.024 -1.1254
310.890228 85.026 -0.7770
313.143066 85.032 -0.4300
315.412231 85.041 -0.0850
317.697845 85.051 0.2558
320.000000 85.063 0.5910
322.318848 85.078 0.9191
324.654510 85.096 1.2380
327.007080 85.115 1.5437
329.376709 85.134 1.8401
331.763519 85.153 2.1297
334.167603 85.173 2.4131
336.589142 85.194 2.6918
339.028198 85.216 2.9652
341.484924 85.238 3.2337
343.959473 85.261 3.4963
346.451935 85.286 3.7517
348.962463 85.311 4.0003
351.491211 85.336 4.2415
354.038239 85.362 4.4763
356.603760 85.389 4.7076
359.187866 85.417 4.9303
361.790680 85.447 5.1403
364.412354 85.478 5.3385
367.053040 85.507 5.5230
369.712860 85.536 5.6975
372.391968 85.564 5.8663
375.090454 85.593 6.0256
377.808533 85.622 6.1717
380.546265 85.650 6.3076
383.303864 85.675 6.4341
386.081451 85.699 6.5547
388.879150 85.721 6.6725
391.697144 85.742 6.7896
394.535522 85.761 6.9089
397.394501 85.778 7.0316
400.274170 85.795 7.1603
403.174744 85.811 7.2946
406.096313 85.827 7.4349
409.039062 85.842 7.5815
412.003113 85.858 7.7360
414.988647 85.874 7.8955
417.995850 85.892 8.0578
421.024811 85.910 8.2225
424.075714 85.928 8.3877
427.148743 85.946 8.5555
430.244049 85.965 8.7284
433.361786 85.985 8.9024
436.502106 86.008 9.0743
439.665161 86.031 9.2445
442.851166 86.053 9.4122
446.060242 86.076 9.5775
449.292572 86.101 9.7413
452.548340 86.127 9.9005
455.827698 86.153 10.0510
459.130798 86.178 10.1965
462.457855 86.202 10.3389
465.809021 86.226 10.4805
469.184448 86.249 10.6247
472.584381 86.272 10.7715
476.008911 86.295 10.9221
479.458252 86.318 11.0775
482.932617 86.341 11.2395
486.432159 86.364 11.4075
489.957031 86.389 11.5817
493.507477 86.415 11.7604
497.083618 86.443 11.9430
500.685699 86.473 12.1264
504.313873 86.506 12.3080
507.968323 86.541 12.4854
511.649292 86.578 12.6560
515.356934 86.617 12.8175
519.091370 86.658 12.9677
522.852966 86.700 13.1046
526.641724 86.743 13.2248
530.458008 86.787 13.3297
534.301941 86.830 13.4191
538.173706 86.873 13.4938
542.073547 86.915 13.5531
546.001648 86.956 13.6009
549.958191 86.994 13.6398
553.943420 87.030 13.6729
557.957520 87.064 13.7032
562.000671 87.097 13.7329
566.073181 87.128 13.7644
570.175171 87.157 13.8009
574.306885 87.184 13.8466
578.468567 87.210 13.9008
582.660400 87.238 13.9643
586.882568 87.266 14.0357
591.135376 87.293 14.1137
595.419006 87.321 14.1997
599.733643 87.349 14.2964
604.079590 87.379 14.3996
608.456970 87.412 14.5064
612.866089 87.447 14.6156
617.307190 87.482 14.7252
621.780457 87.518 14.8356
626.286133 87.556 14.9478
630.824463 87.597 15.0586
635.395691 87.640 15.1651
640.000000 87.684 15.2677
644.637695 87.728 15.3652
649.309021 87.774 15.4587
654.014160 87.821 15.5493
658.753418 87.871 15.6357
663.527039 87.922 15.7174
668.335205 87.975 15.7938
673.178284 88.029 15.8654
678.056396 88.087 15.9288
682.969849 88.148 15.9827
687.918945 88.212 16.0209
692.903870 88.279 16.0381
697.924927 88.349 16.0311
702.982422 88.419 15.9949
708.076477 88.491 15.9293
713.207520 88.563 15.8326
718.375732 88.635 15.7045
723.581360 88.705 15.5423
728.824707 88.772 15.3517
734.106079 88.835 15.1358
739.425720 88.894 14.8999
744.783936 88.949 14.6492
750.180908 89.000 14.3870
755.617065 89.048 14.1164
761.092529 89.092 13.8420
766.607727 89.131 13.5689
772.162903 89.168 13.2980
777.758301 89.202 13.0314
783.394287 89.234 12.7699
789.071045 89.263 12.5135
794.789001 89.289 12.2669
800.548340 89.312 12.0347
806.349487 89.333 11.8177
812.192627 89.355 11.6197
818.078125 89.377 11.4366
824.006226 89.400 11.2657
829.977295 89.425 11.1075
835.991699 89.449 10.9637
842.049622 89.476 10.8285
848.151428 89.507 10.7001
854.297485 89.543 10.5685
860.488098 89.583 10.4236
866.723572 89.626 10.2636
873.004211 89.669 10.0838
879.330322 89.714 9.8838
885.702332 89.760 9.6626
892.120483 89.806 9.4169
898.585144 89.853 9.1412
905.096680 89.898 8.8402
911.655396 89.939 8.5155
918.261597 89.978 8.1713
924.915710 90.013 7.8117
931.618042 90.046 7.4384
938.368896 90.075 7.0526
945.168762 90.100 6.6595
952.017822 90.120 6.2632
958.916504 90.137 5.8675
965.865234 90.150 5.4770
972.864319 90.160 5.0934
979.914062 90.168 4.7195
987.014954 90.173 4.3563
994.167236 90.176 4.0066
1001.371399 90.179 3.6682
1008.627747 90.182 3.3415
