* Measurement data measured by REW V5.20.13
* Source: C:\Users\kurin\Desktop\Targets and Curves\Resolve\Img\Files\k371 gras_SPL.txt
* Format: Comma/Tab/Space delimited data
* Dated: Aug 14, 2023 5:31:19 PM
* REW Settings:
*  C-weighting compensation: Off
*  Target level: 75.0 dB
* Note: ; Measurement imported from C:\Users\kurin\Desktop\Targets and Curves\Resolve\Img\Files\k371 gras_SPL.txt Format: Comma/Tab/Space delimited data 623 values loaded, 5 Hz to 39,792 Hz log spaced 
* Measurement: k371 gras_SPL
* Smoothing: 1/48 octave
* Frequency Step: 1/96 octave
* Start Frequency: 5.000 Hz
*
* Freq(Hz) SPL(dB) Phase(degrees)
5.000000 94.551 3.9150
5.036232 94.554 3.9021
5.072727 94.557 3.8880
5.109486 94.560 3.8714
5.146511 94.563 3.8520
5.183805 94.567 3.8286
5.221369 94.572 3.8030
5.259205 94.577 3.7767
5.297316 94.582 3.7490
5.335702 94.587 3.7194
5.374367 94.593 3.6890
5.413311 94.599 3.6591
5.452538 94.604 3.6290
5.492050 94.609 3.5981
5.531847 94.614 3.5670
5.571934 94.619 3.5361
5.612310 94.625 3.5050
5.652979 94.631 3.4737
5.693943 94.636 3.4420
5.735204 94.642 3.4096
5.776763 94.647 3.3770
5.818624 94.652 3.3446
5.860788 94.658 3.3120
5.903258 94.663 3.2791
5.946035 94.669 3.2460
5.989123 94.674 3.2126
6.032523 94.680 3.1790
6.076237 94.686 3.1451
6.120268 94.691 3.1110
6.164618 94.696 3.0767
6.209289 94.701 3.0420
6.254284 94.706 3.0066
6.299605 94.712 2.9710
6.345255 94.717 2.9356
6.391235 94.723 2.9000
6.437549 94.729 2.8642
6.484198 94.734 2.8280
6.531185 94.740 2.7911
6.578513 94.745 2.7540
6.626183 94.750 2.7171
6.674199 94.756 2.6800
6.722563 94.761 2.6421
6.771278 94.767 2.6040
6.820345 94.773 2.5661
6.869768 94.778 2.5280
6.919549 94.783 2.4893
6.969691 94.788 2.4500
7.020196 94.793 2.4101
7.071068 94.799 2.3700
7.122308 94.804 2.3301
7.173919 94.810 2.2900
7.225904 94.815 2.2497
7.278266 94.821 2.2090
7.331007 94.826 2.1677
7.384131 94.832 2.1260
7.437639 94.838 2.0842
7.491535 94.843 2.0420
7.545822 94.848 1.9991
7.600502 94.854 1.9560
7.655579 94.860 1.9131
7.711054 94.865 1.8700
7.766932 94.870 1.8263
7.823214 94.875 1.7820
7.879904 94.880 1.7371
7.937005 94.886 1.6920
7.994520 94.892 1.6472
8.052452 94.897 1.6020
8.110803 94.902 1.5557
8.169578 94.908 1.5090
8.228777 94.913 1.4626
8.288406 94.919 1.4160
8.348468 94.924 1.3688
8.408964 94.930 1.3210
8.469899 94.936 1.2727
8.531276 94.941 1.2240
8.593097 94.947 1.1751
8.655366 94.952 1.1260
8.718086 94.957 1.0767
8.781260 94.962 1.0270
8.844893 94.967 0.9768
8.908987 94.973 0.9260
8.973545 94.979 0.8747
9.038571 94.984 0.8230
9.104069 94.990 0.7712
9.170040 94.995 0.7190
9.236490 95.000 0.6663
9.303422 95.006 0.6130
9.370838 95.011 0.5592
9.438744 95.017 0.5050
9.507140 95.022 0.4507
9.576033 95.028 0.3960
9.645425 95.034 0.3408
9.715320 95.039 0.2850
9.785721 95.044 0.2288
9.856632 95.049 0.1720
9.928058 95.054 0.1147
10.000000 95.060 0.0570
10.072464 95.065 -0.0008
10.145453 95.071 -0.0589
10.218971 95.076 -0.1176
10.293022 95.082 -0.1770
10.367610 95.088 -0.2372
10.442738 95.093 -0.2980
10.518411 95.098 -0.3588
10.594631 95.104 -0.4200
10.671404 95.109 -0.4817
10.748734 95.115 -0.5440
10.826623 95.121 -0.6067
10.905077 95.126 -0.6699
10.984100 95.131 -0.7342
11.063695 95.136 -0.7990
11.143867 95.141 -0.8638
11.224621 95.147 -0.9290
11.305959 95.152 -0.9947
11.387886 95.158 -1.0609
11.470407 95.163 -1.1282
11.553527 95.169 -1.1960
11.637249 95.174 -1.2642
11.721577 95.180 -1.3329
11.806517 95.185 -1.4021
11.892071 95.191 -1.4719
11.978246 95.197 -1.5426
12.065045 95.202 -1.6140
12.152473 95.208 -1.6857
12.240536 95.213 -1.7580
12.329235 95.218 -1.8306
12.418578 95.223 -1.9039
12.508568 95.228 -1.9781
12.599211 95.234 -2.0530
12.690510 95.240 -2.1286
12.782471 95.245 -2.2049
12.875097 95.250 -2.2817
12.968395 95.256 -2.3589
13.062370 95.261 -2.4366
13.157025 95.267 -2.5150
13.252366 95.272 -2.5946
13.348398 95.278 -2.6749
13.445127 95.283 -2.7556
13.542556 95.289 -2.8369
13.640691 95.295 -2.9191
13.739536 95.300 -3.0020
13.839099 95.305 -3.0856
13.939383 95.310 -3.1699
14.040393 95.315 -3.2551
14.142136 95.321 -3.3410
14.244616 95.326 -3.4276
14.347837 95.332 -3.5150
14.451808 95.338 -3.6031
14.556532 95.343 -3.6920
14.662014 95.348 -3.7815
14.768262 95.354 -3.8719
14.875278 95.359 -3.9635
14.983070 95.365 -4.0559
15.091644 95.370 -4.1490
15.201005 95.376 -4.2429
15.311157 95.382 -4.3380
15.422109 95.387 -4.4339
15.533863 95.392 -4.5305
15.646428 95.397 -4.6279
15.759809 95.402 -4.7265
15.874010 95.408 -4.8259
15.989040 95.413 -4.9260
16.104904 95.419 -5.0269
16.221605 95.424 -5.1289
16.339155 95.430 -5.2319
16.457554 95.435 -5.3359
16.576813 95.441 -5.4409
16.696936 95.447 -5.5469
16.817928 95.452 -5.6539
16.939798 95.457 -5.7619
17.062551 95.463 -5.8709
17.186193 95.469 -5.9808
17.310732 95.474 -6.0919
17.436172 95.479 -6.2044
17.562521 95.484 -6.3179
17.689787 95.489 -6.4320
17.817974 95.495 -6.5469
17.947090 95.500 -6.6628
18.077143 95.506 -6.7799
18.208138 95.511 -6.8984
18.340080 95.517 -7.0179
18.472980 95.522 -7.1380
18.606844 95.528 -7.2589
18.741676 95.533 -7.3806
18.877487 95.539 -7.5029
19.014280 95.544 -7.6257
19.152065 95.550 -7.7489
19.290850 95.555 -7.8719
19.430639 95.561 -7.9949
19.571442 95.567 -8.1175
19.713264 95.574 -8.2408
19.856115 95.582 -8.3652
20.000000 95.590 -8.4929
20.144928 95.599 -8.6256
20.290907 95.609 -8.7649
20.437943 95.619 -8.9130
20.586044 95.630 -9.0689
20.735220 95.640 -9.2328
20.885475 95.649 -9.4028
21.036821 95.657 -9.5777
21.189262 95.664 -9.7558
21.342808 95.670 -9.9356
21.497467 95.675 -10.1148
21.653246 95.679 -10.2898
21.810154 95.683 -10.4628
21.968201 95.689 -10.6328
22.127390 95.696 -10.8048
22.287735 95.704 -10.9836
22.449242 95.712 -11.1688
22.611917 95.720 -11.3613
22.775772 95.729 -11.5617
22.940815 95.737 -11.7716
23.107054 95.745 -11.9897
23.274498 95.751 -12.2166
23.443153 95.756 -12.4487
23.613033 95.759 -12.6833
23.784142 95.761 -12.9188
23.956491 95.762 -13.1521
24.130091 95.763 -13.3847
24.304947 95.763 -13.6168
24.481071 95.763 -13.8487
24.658470 95.763 -14.0801
24.837156 95.763 -14.3127
25.017136 95.763 -14.5479
25.198421 95.763 -14.7858
25.381020 95.763 -15.0261
25.564941 95.763 -15.2708
25.750195 95.763 -15.5213
25.936790 95.763 -15.7777
26.124741 95.762 -16.0403
26.314051 95.761 -16.3096
26.504732 95.759 -16.5866
26.696796 95.756 -16.8696
26.890253 95.751 -17.1589
27.085112 95.745 -17.4507
27.281382 95.737 -17.7412
27.479073 95.727 -18.0316
27.678198 95.717 -18.3222
27.878765 95.706 -18.6116
28.080786 95.693 -18.8995
28.284271 95.678 -19.1836
28.489231 95.663 -19.4597
28.695675 95.649 -19.7336
28.903616 95.636 -20.0102
29.113064 95.623 -20.2886
29.324028 95.607 -20.5701
29.536524 95.591 -20.8527
29.750557 95.575 -21.1336
29.966141 95.559 -21.4157
30.183289 95.542 -21.7013
30.402010 95.525 -21.9886
30.622314 95.506 -22.2770
30.844217 95.486 -22.5657
31.067726 95.466 -22.8529
31.292856 95.445 -23.1406
31.519617 95.423 -23.4302
31.748020 95.401 -23.7216
31.978081 95.378 -24.0161
32.209808 95.354 -24.3116
32.443211 95.328 -24.6073
32.678310 95.301 -24.9016
32.915108 95.272 -25.1929
33.153625 95.242 -25.4807
33.393871 95.211 -25.7639
33.635857 95.179 -26.0416
33.879597 95.145 -26.3114
34.125103 95.111 -26.5756
34.372387 95.078 -26.8355
34.621464 95.044 -27.0916
34.872345 95.009 -27.3456
35.125042 94.974 -27.5957
35.379574 94.938 -27.8405
35.635948 94.902 -28.0807
35.894180 94.865 -28.3174
36.154285 94.828 -28.5477
36.416275 94.790 -28.7689
36.680161 94.751 -28.9817
36.945961 94.713 -29.1840
37.213688 94.677 -29.3807
37.483353 94.642 -29.5761
37.754974 94.609 -29.7707
38.028561 94.576 -29.9653
38.304131 94.545 -30.1637
38.581699 94.516 -30.3687
38.861279 94.488 -30.5837
39.142883 94.460 -30.8143
39.426529 94.432 -31.0567
39.712231 94.402 -31.3091
40.000000 94.370 -31.5706
40.289856 94.338 -31.8399
40.581814 94.304 -32.1166
40.875885 94.269 -32.4005
41.172089 94.232 -32.6896
41.470440 94.193 -32.9819
41.770950 94.151 -33.2775
42.073643 94.108 -33.5755
42.378525 94.063 -33.8766
42.685616 94.017 -34.1819
42.994934 93.968 -34.4896
43.306492 93.916 -34.7990
43.620308 93.860 -35.1065
43.936401 93.801 -35.4087
44.254780 93.739 -35.7035
44.575470 93.674 -35.9892
44.898483 93.606 -36.2616
45.223835 93.533 -36.5171
45.551544 93.458 -36.7527
45.881630 93.381 -36.9636
46.214108 93.303 -37.1517
46.548996 93.224 -37.3172
46.886307 93.145 -37.4608
47.226067 93.065 -37.5831
47.568283 92.986 -37.6848
47.912983 92.908 -37.7659
48.260181 92.831 -37.8299
48.609894 92.755 -37.8801
48.962143 92.680 -37.9170
49.316940 92.606 -37.9418
49.674313 92.534 -37.9560
50.034271 92.463 -37.9607
50.396843 92.393 -37.9570
50.762039 92.324 -37.9468
51.129883 92.256 -37.9290
51.500389 92.189 -37.9022
51.873581 92.122 -37.8691
52.249481 92.057 -37.8322
52.628101 91.993 -37.7911
53.009464 91.929 -37.7468
53.393593 91.866 -37.6971
53.780506 91.803 -37.6393
54.170223 91.740 -37.5751
54.562763 91.679 -37.5055
54.958145 91.618 -37.4301
55.356396 91.558 -37.3490
55.757530 91.499 -37.2621
56.161572 91.441 -37.1693
56.568542 91.383 -37.0712
56.978462 91.327 -36.9676
57.391350 91.273 -36.8612
57.807232 91.220 -36.7542
58.226128 91.169 -36.6472
58.648056 91.119 -36.5407
59.073048 91.070 -36.4372
59.501114 91.023 -36.3382
59.932281 90.977 -36.2472
60.366577 90.933 -36.1681
60.804020 90.889 -36.1001
61.244629 90.844 -36.0442
61.688435 90.797 -35.9991
62.135452 90.750 -35.9642
62.585712 90.701 -35.9380
63.039234 90.649 -35.9216
63.496040 90.592 -35.9060
63.956161 90.531 -35.8845
64.419617 90.465 -35.8511
64.886421 90.396 -35.7974
65.356621 90.325 -35.7231
65.830215 90.252 -35.6265
66.307251 90.176 -35.5043
66.787743 90.098 -35.3525
67.271713 90.020 -35.1714
67.759193 89.943 -34.9589
68.250206 89.866 -34.7175
68.744774 89.790 -34.4490
69.242928 89.715 -34.1526
69.744690 89.642 -33.8279
70.250084 89.570 -33.4747
70.759148 89.501 -33.0925
71.271896 89.435 -32.6818
71.788361 89.372 -32.2423
72.308571 89.313 -31.7759
72.832550 89.259 -31.2830
73.360321 89.210 -30.7680
73.891922 89.167 -30.2343
74.427376 89.131 -29.6851
74.966705 89.101 -29.1218
75.509949 89.079 -28.5520
76.057121 89.066 -27.9815
76.608261 89.061 -27.4171
77.163399 89.062 -26.8667
77.722557 89.071 -26.3331
78.285767 89.087 -25.8195
78.853058 89.110 -25.3320
79.424461 89.139 -24.8765
80.000000 89.173 -24.4558
80.579712 89.211 -24.0740
81.163628 89.253 -23.7326
81.751770 89.298 -23.4341
82.344177 89.346 -23.1795
82.940880 89.395 -22.9706
83.541901 89.445 -22.8073
84.147285 89.495 -22.6899
84.757050 89.544 -22.6181
85.371231 89.591 -22.5931
85.989868 89.635 -22.6109
86.612984 89.676 -22.6698
87.240616 89.712 -22.7638
87.872803 89.742 -22.8876
88.509560 89.767 -23.0367
89.150940 89.786 -23.2061
89.796967 89.800 -23.3916
90.447670 89.808 -23.5891
91.103088 89.810 -23.7926
91.763260 89.805 -23.9970
92.428215 89.793 -24.1956
93.097992 89.775 -24.3816
93.772614 89.752 -24.5507
94.452133 89.724 -24.6982
95.136566 89.692 -24.8188
95.825966 89.655 -24.9060
96.520363 89.616 -24.9589
97.219788 89.577 -24.9731
97.924286 89.538 -24.9531
98.633881 89.501 -24.9006
99.348625 89.466 -24.8202
100.068542 89.435 -24.7142
100.793686 89.407 -24.5903
101.524078 89.385 -24.4550
102.259766 89.368 -24.3143
103.000778 89.354 -24.1766
103.747162 89.343 -24.0413
104.498962 89.335 -23.9096
105.256203 89.329 -23.7842
106.018929 89.326 -23.6681
106.787186 89.326 -23.5612
107.561012 89.327 -23.4643
108.340446 89.329 -23.3781
109.125526 89.334 -23.3027
109.916290 89.340 -23.2411
110.712791 89.348 -23.1963
111.515060 89.357 -23.1680
112.323143 89.367 -23.1566
113.137085 89.377 -23.1630
113.956924 89.388 -23.1875
114.782700 89.399 -23.2329
115.614464 89.410 -23.3033
116.452255 89.419 -23.3948
117.296112 89.426 -23.5061
118.146095 89.430 -23.6327
119.002228 89.432 -23.7695
119.864563 89.431 -23.9176
120.733154 89.429 -24.0775
121.608040 89.424 -24.2456
122.489258 89.415 -24.4198
123.376869 89.403 -24.5966
124.270905 89.389 -24.7709
125.171425 89.373 -24.9457
126.078468 89.356 -25.1223
126.992081 89.338 -25.3006
127.912323 89.318 -25.4810
128.839233 89.295 -25.6636
129.772842 89.271 -25.8491
130.713242 89.244 -26.0356
131.660431 89.214 -26.2230
132.614502 89.181 -26.4075
133.575485 89.144 -26.5855
134.543427 89.105 -26.7557
135.518387 89.064 -26.9162
136.500412 89.020 -27.0647
137.489548 88.973 -27.1985
138.485855 88.924 -27.3167
139.489380 88.874 -27.4175
140.500168 88.822 -27.5008
141.518295 88.769 -27.5664
142.543793 88.716 -27.6139
143.576721 88.663 -27.6425
144.617142 88.610 -27.6540
145.665100 88.558 -27.6499
146.720642 88.506 -27.6311
147.783844 88.455 -27.5984
148.854752 88.404 -27.5531
149.933411 88.356 -27.4957
151.019897 88.309 -27.4302
152.114243 88.265 -27.3609
153.216522 88.221 -27.2872
154.326797 88.177 -27.2097
155.445114 88.134 -27.1282
156.571533 88.093 -27.0427
157.706116 88.052 -26.9532
158.848923 88.011 -26.8594
160.000000 87.971 -26.7622
161.159424 87.933 -26.6617
162.327255 87.896 -26.5602
163.503540 87.860 -26.4600
164.688354 87.825 -26.3622
165.881760 87.791 -26.2692
167.083801 87.757 -26.1802
168.294571 87.723 -26.0955
169.514099 87.688 -26.0142
170.742462 87.653 -25.9369
171.979736 87.617 -25.8602
173.225967 87.579 -25.7815
174.481232 87.540 -25.6982
175.745605 87.499 -25.6070
177.019119 87.458 -25.5073
178.301880 87.417 -25.3968
179.593933 87.376 -25.2763
180.895340 87.335 -25.1449
182.206177 87.295 -25.0053
183.526520 87.257 -24.8591
184.856430 87.220 -24.7093
186.195984 87.185 -24.5595
187.545227 87.150 -24.4104
188.904266 87.115 -24.2640
190.273132 87.081 -24.1194
191.651932 87.047 -23.9759
193.040726 87.013 -23.8334
194.439575 86.978 -23.6925
195.848572 86.942 -23.5494
197.267761 86.904 -23.4010
198.697250 86.865 -23.2464
200.137085 86.827 -23.0840
201.587372 86.788 -22.9134
203.048157 86.748 -22.7345
204.519531 86.708 -22.5456
206.001556 86.668 -22.3453
207.494324 86.627 -22.1325
208.997925 86.586 -21.9057
210.512405 86.546 -21.6646
212.037857 86.507 -21.4087
213.574371 86.468 -21.1377
215.122025 86.431 -20.8512
216.680893 86.395 -20.5488
218.251053 86.361 -20.2288
219.832581 86.329 -19.8940
221.425583 86.302 -19.5448
223.030121 86.279 -19.1869
224.646286 86.260 -18.8248
226.274170 86.246 -18.4629
227.913849 86.236 -18.1058
229.565399 86.230 -17.7579
231.228928 86.229 -17.4243
232.904510 86.231 -17.1079
234.592224 86.236 -16.8134
236.292191 86.242 -16.5397
238.004456 86.249 -16.2879
239.729126 86.255 -16.0556
241.466309 86.261 -15.8427
243.216080 86.265 -15.6435
244.978516 86.267 -15.4531
246.753738 86.269 -15.2695
248.541809 86.270 -15.0893
250.342850 86.271 -14.9125
252.156937 86.271 -14.7382
253.984161 86.271 -14.5665
255.824646 86.271 -14.3971
257.678467 86.271 -14.2304
259.545685 86.271 -14.0665
261.426483 86.271 -13.9054
263.320862 86.271 -13.7475
265.229004 86.271 -13.5924
267.150970 86.271 -13.4401
269.086853 86.271 -13.2904
271.036774 86.271 -13.1436
273.000824 86.271 -12.9994
274.979095 86.271 -12.8580
276.971710 86.271 -12.7194
278.978760 86.271 -12.5836
281.000336 86.271 -12.4504
283.036591 86.271 -12.3195
285.087585 86.271 -12.1914
287.153442 86.271 -12.0664
289.234283 86.271 -11.9443
291.330200 86.271 -11.8249
293.441284 86.271 -11.7093
295.567688 86.271 -11.5985
297.709503 86.271 -11.4923
299.866821 86.270 -11.3911
302.039795 86.269 -11.2943
304.228485 86.268 -11.2021
306.433044 86.265 -11.1123
308.653595 86.260 -11.0236
310.890228 86.253 -10.9323
313.143066 86.245 -10.8339
315.412231 86.237 -10.7293
317.697845 86.229 -10.6177
320.000000 86.221 -10.4994
322.318848 86.213 -10.3740
324.654510 86.205 -10.2424
327.007080 86.198 -10.1041
329.376709 86.193 -9.9634
331.763519 86.190 -9.8242
334.167603 86.188 -9.6874
336.589142 86.187 -9.5555
339.028198 86.186 -9.4284
341.484924 86.186 -9.3069
343.959473 86.186 -9.1913
346.451935 86.186 -9.0824
348.962463 86.186 -8.9793
351.491211 86.185 -8.8814
354.038239 86.184 -8.7883
356.603760 86.183 -8.7000
359.187866 86.180 -8.6143
361.790680 86.175 -8.5301
364.412354 86.168 -8.4433
367.053040 86.160 -8.3490
369.712860 86.152 -8.2483
372.391968 86.144 -8.1408
375.090454 86.136 -8.0263
377.808533 86.128 -7.9041
380.546265 86.120 -7.7754
383.303864 86.113 -7.6398
386.081451 86.108 -7.5014
388.879150 86.105 -7.3638
391.697144 86.104 -7.2284
394.535522 86.103 -7.0982
397.394501 86.102 -6.9724
400.274170 86.102 -6.8510
403.174744 86.102 -6.7344
406.096313 86.102 -6.6228
409.039062 86.102 -6.5163
412.003113 86.102 -6.4149
414.988647 86.101 -6.3183
417.995850 86.100 -6.2264
421.024811 86.098 -6.1383
424.075714 86.096 -6.0538
427.148743 86.092 -5.9703
430.244049 86.086 -5.8856
433.361786 86.079 -5.7973
436.502106 86.071 -5.7019
439.665161 86.063 -5.6003
442.851166 86.055 -5.4922
446.060242 86.047 -5.3784
449.292572 86.039 -5.2592
452.548340 86.032 -5.1364
455.827698 86.026 -5.0106
459.130798 86.020 -4.8854
462.457855 86.016 -4.7654
465.809021 86.012 -4.6484
469.184448 86.006 -4.5348
472.584381 85.999 -4.4214
476.008911 85.991 -4.3050
479.458252 85.982 -4.1854
482.932617 85.973 -4.0618
486.432159 85.963 -3.9324
489.957031 85.952 -3.7960
493.507477 85.940 -3.6505
497.083618 85.927 -3.4928
500.685699 85.915 -3.3246
504.313873 85.905 -3.1456
507.968323 85.895 -2.9576
511.649292 85.885 -2.7627
515.356934 85.876 -2.5597
519.091370 85.868 -2.3478
522.852966 85.862 -2.1277
526.641724 85.857 -1.8991
530.458008 85.853 -1.6638
534.301941 85.851 -1.4233
538.173706 85.851 -1.1778
542.073547 85.852 -0.9275
546.001648 85.856 -0.6739
549.958191 85.862 -0.4167
553.943420 85.872 -0.1618
557.957520 85.886 0.0855
562.000671 85.902 0.3232
566.073181 85.920 0.5480
570.175171 85.939 0.7583
574.306885 85.960 0.9523
578.468567 85.983 1.1274
582.660400 86.006 1.2786
586.882568 86.027 1.4126
591.135376 86.044 1.5322
595.419006 86.059 1.6436
599.733643 86.072 1.7527
604.079590 86.082 1.8626
608.456970 86.089 1.9774
612.866089 86.095 2.1006
617.307190 86.099 2.2363
621.780457 86.102 2.3865
626.286133 86.105 2.5557
630.824463 86.108 2.7404
635.395691 86.114 2.9394
640.000000 86.122 3.1503
644.637695 86.132 3.3706
649.309021 86.145 3.5982
654.014160 86.160 3.8320
658.753418 86.179 4.0662
663.527039 86.203 4.2966
668.335205 86.230 4.5183
673.178284 86.260 4.7250
678.056396 86.292 4.9164
682.969849 86.326 5.0909
687.918945 86.362 5.2455
692.903870 86.399 5.3757
697.924927 86.437 5.4837
702.982422 86.472 5.5680
708.076477 86.505 5.6348
713.207520 86.536 5.6892
718.375732 86.565 5.7329
723.581360 86.592 5.7674
728.824707 86.616 5.7979
734.106079 86.637 5.8289
739.425720 86.656 5.8629
744.783936 86.674 5.9042
750.180908 86.691 5.9508
755.617065 86.708 6.0012
761.092529 86.724 6.0578
766.607727 86.738 6.1230
772.162903 86.752 6.1957
777.758301 86.768 6.2766
783.394287 86.784 6.3627
789.071045 86.800 6.4507
794.789001 86.817 6.5427
800.548340 86.834 6.6405
806.349487 86.852 6.7416
812.192627 86.871 6.8448
818.078125 86.892 6.9486
824.006226 86.913 7.0518
829.977295 86.936 7.1526
835.991699 86.961 7.2493
842.049622 86.986 7.3417
848.151428 87.010 7.4284
854.297485 87.035 7.5117
860.488098 87.060 7.5935
866.723572 87.085 7.6727
873.004211 87.111 7.7485
879.330322 87.137 7.8227
885.702332 87.162 7.8969
892.120483 87.188 7.9707
898.585144 87.215 8.0460
905.096680 87.243 8.1187
911.655396 87.272 8.1855
918.261597 87.302 8.2468
924.915710 87.332 8.3018
931.618042 87.362 8.3508
938.368896 87.393 8.3944
945.168762 87.424 8.4309
952.017822 87.455 8.4582
