* Measurement data measured by REW V5.20.13
* Source: C:\Users\kurin\Desktop\Targets and Curves\Resolve\Img\Files\Susvara_SPL.txt
* Format: Comma/Tab/Space delimited data
* Dated: Aug 15, 2023 12:42:40 AM
* REW Settings:
*  C-weighting compensation: Off
*  Target level: 75.0 dB
* Note: ; Measurement imported from C:\Users\kurin\Desktop\Targets and Curves\Resolve\Img\Files\Susvara_SPL.txt Format: Comma/Tab/Space delimited data 623 values loaded, 5 Hz to 39,792 Hz log spaced 
* Measurement: Susvara_SPL
* Smoothing: 1/48 octave
* Frequency Step: 1/96 octave
* Start Frequency: 5.000 Hz
*
* Freq(Hz) SPL(dB) Phase(degrees)
5.000000 78.462 12.9580
5.036232 78.466 12.9551
5.072727 78.471 12.9520
5.109486 78.477 12.9482
5.146511 78.483 12.9440
5.183805 78.490 12.9392
5.221369 78.498 12.9340
5.259205 78.506 12.9286
5.297316 78.515 12.9230
5.335702 78.524 12.9175
5.374367 78.534 12.9120
5.413311 78.543 12.9066
5.452538 78.553 12.9010
5.492050 78.562 12.8950
5.531847 78.572 12.8890
5.571934 78.581 12.8835
5.612310 78.591 12.8780
5.652979 78.601 12.8720
5.693943 78.610 12.8660
5.735204 78.619 12.8605
5.776763 78.629 12.8550
5.818624 78.639 12.8491
5.860788 78.649 12.8430
5.903258 78.659 12.8370
5.946035 78.668 12.8310
5.989123 78.677 12.8250
6.032523 78.687 12.8190
6.076237 78.696 12.8131
6.120268 78.706 12.8070
6.164618 78.715 12.8006
6.209289 78.725 12.7940
6.254284 78.734 12.7874
6.299605 78.744 12.7810
6.345255 78.754 12.7750
6.391235 78.763 12.7690
6.437549 78.772 12.7626
6.484198 78.782 12.7560
6.531185 78.791 12.7490
6.578513 78.801 12.7420
6.626183 78.811 12.7354
6.674199 78.820 12.7290
6.722563 78.829 12.7226
6.771278 78.839 12.7160
6.820345 78.848 12.7091
6.869768 78.858 12.7020
6.919549 78.868 12.6950
6.969691 78.877 12.6880
7.020196 78.886 12.6811
7.071068 78.896 12.6740
7.122308 78.906 12.6665
7.173919 78.915 12.6590
7.225904 78.924 12.6520
7.278266 78.934 12.6450
7.331007 78.943 12.6376
7.384131 78.953 12.6300
7.437639 78.963 12.6225
7.491535 78.972 12.6150
7.545822 78.981 12.6075
7.600502 78.991 12.6000
7.655579 79.000 12.5926
7.711054 79.010 12.5850
7.766932 79.020 12.5771
7.823214 79.029 12.5690
7.879904 79.038 12.5610
7.937005 79.048 12.5530
7.994520 79.057 12.5450
8.052452 79.067 12.5370
8.110803 79.076 12.5291
8.169578 79.086 12.5210
8.228777 79.095 12.5126
8.288406 79.105 12.5040
8.348468 79.115 12.4955
8.408964 79.124 12.4870
8.469899 79.133 12.4785
8.531276 79.143 12.4700
8.593097 79.152 12.4615
8.655366 79.162 12.4530
8.718086 79.172 12.4446
8.781260 79.181 12.4360
8.844893 79.190 12.4271
8.908987 79.200 12.4180
8.973545 79.209 12.4091
9.038571 79.219 12.4000
9.104069 79.228 12.3905
9.170040 79.238 12.3810
9.236490 79.247 12.3720
9.303422 79.257 12.3630
9.370838 79.267 12.3536
9.438744 79.276 12.3440
9.507140 79.285 12.3346
9.576033 79.295 12.3250
9.645425 79.304 12.3151
9.715320 79.314 12.3050
9.785721 79.323 12.2950
9.856632 79.333 12.2850
9.928058 79.342 12.2750
10.000000 79.352 12.2650
10.072464 79.361 12.2551
10.145453 79.371 12.2450
10.218971 79.380 12.2346
10.293022 79.390 12.2240
10.367610 79.399 12.2135
10.442738 79.409 12.2030
10.518411 79.418 12.1926
10.594631 79.428 12.1820
10.671404 79.438 12.1711
10.748734 79.447 12.1600
10.826623 79.456 12.1490
10.905077 79.466 12.1380
10.984100 79.475 12.1271
11.063695 79.485 12.1160
11.143867 79.494 12.1046
11.224621 79.504 12.0930
11.305959 79.513 12.0815
11.387886 79.523 12.0700
11.470407 79.533 12.0586
11.553527 79.543 12.0470
11.637249 79.553 12.0351
11.721577 79.562 12.0230
11.806517 79.571 12.0111
11.892071 79.581 11.9990
11.978246 79.590 11.9865
12.065045 79.600 11.9740
12.152473 79.609 11.9621
12.240536 79.619 11.9500
12.329235 79.628 11.9371
12.418578 79.638 11.9240
12.508568 79.647 11.9115
12.599211 79.657 11.8990
12.690510 79.666 11.8861
12.782471 79.676 11.8730
12.875097 79.685 11.8596
12.968395 79.695 11.8460
13.062370 79.704 11.8325
13.157025 79.714 11.8190
13.252366 79.723 11.8056
13.348398 79.733 11.7920
13.445127 79.742 11.7781
13.542556 79.752 11.7640
13.640691 79.761 11.7500
13.739536 79.771 11.7360
13.839099 79.780 11.7221
13.939383 79.790 11.7080
14.040393 79.799 11.6936
14.142136 79.809 11.6790
14.244616 79.818 11.6641
14.347837 79.828 11.6490
14.451808 79.838 11.6340
14.556532 79.847 11.6190
14.662014 79.856 11.6041
14.768262 79.866 11.5890
14.875278 79.875 11.5736
14.983070 79.885 11.5580
15.091644 79.894 11.5421
15.201005 79.904 11.5260
15.311157 79.913 11.5101
15.422109 79.923 11.4940
15.533863 79.932 11.4776
15.646428 79.942 11.4610
15.759809 79.951 11.4446
15.874010 79.961 11.4280
15.989040 79.970 11.4111
16.104904 79.980 11.3940
16.221605 79.989 11.3771
16.339155 79.999 11.3600
16.457554 80.008 11.3426
16.576813 80.018 11.3250
16.696936 80.027 11.3076
16.817928 80.037 11.2900
16.939798 80.046 11.2721
17.062551 80.056 11.2540
17.186193 80.065 11.2360
17.310732 80.075 11.2180
17.436172 80.084 11.2001
17.562521 80.094 11.1820
17.689787 80.103 11.1636
17.817974 80.113 11.1450
17.947090 80.122 11.1261
18.077143 80.132 11.1070
18.208138 80.141 11.0880
18.340080 80.151 11.0690
18.472980 80.160 11.0501
18.606844 80.170 11.0310
18.741676 80.179 11.0117
18.877487 80.189 10.9920
19.014280 80.198 10.9716
19.152065 80.208 10.9510
19.290850 80.218 10.9305
19.430639 80.227 10.9100
19.571442 80.236 10.8895
19.713264 80.244 10.8700
19.856115 80.253 10.8522
20.000000 80.261 10.8380
20.144928 80.268 10.8299
20.290907 80.276 10.8270
20.437943 80.284 10.8301
20.586044 80.294 10.8370
20.735220 80.305 10.8468
20.885475 80.318 10.8570
21.036821 80.333 10.8664
21.189262 80.350 10.8700
21.342808 80.369 10.8631
21.497467 80.390 10.8430
21.653246 80.411 10.8041
21.810154 80.432 10.7501
21.968201 80.451 10.6829
22.127390 80.468 10.6031
22.287735 80.485 10.5102
22.449242 80.499 10.4091
22.611917 80.509 10.3022
22.775772 80.515 10.1971
22.940815 80.518 10.1025
23.107054 80.520 10.0181
23.274498 80.521 9.9467
23.443153 80.521 9.8881
23.613033 80.520 9.8419
23.784142 80.519 9.8110
23.956491 80.518 9.8003
24.130091 80.518 9.8030
24.304947 80.523 9.8159
24.481071 80.530 9.8340
24.658470 80.539 9.8524
24.837156 80.551 9.8680
25.017136 80.566 9.8783
25.198421 80.584 9.8770
25.381020 80.604 9.8565
25.564941 80.625 9.8180
25.750195 80.645 9.7588
25.936790 80.664 9.6831
26.124741 80.681 9.5938
26.314051 80.696 9.4931
26.504732 80.709 9.3823
26.696796 80.719 9.2671
26.890253 80.726 9.1533
27.085112 80.730 9.0431
27.281382 80.733 8.9414
27.479073 80.734 8.8471
27.678198 80.735 8.7616
27.878765 80.735 8.6831
28.080786 80.736 8.6111
28.284271 80.737 8.5431
28.489231 80.738 8.4769
28.695675 80.740 8.4111
28.903616 80.742 8.3436
29.113064 80.743 8.2741
29.324028 80.743 8.1988
29.536524 80.741 8.1261
29.750557 80.735 8.0614
29.966141 80.726 8.0090
30.183289 80.717 7.9760
30.402010 80.708 7.9600
30.622314 80.699 7.9604
30.844217 80.691 7.9800
31.067726 80.683 8.0231
31.292856 80.677 8.0839
31.519617 80.677 8.1629
31.748020 80.683 8.2459
31.978081 80.694 8.3193
32.209808 80.709 8.3809
32.443211 80.726 8.4241
32.678310 80.745 8.4490
32.915108 80.766 8.4534
33.153625 80.787 8.4370
33.393871 80.807 8.3965
33.635857 80.826 8.3391
33.879597 80.841 8.2694
34.125103 80.853 8.1921
34.372387 80.864 8.1125
34.621464 80.872 8.0341
34.872345 80.877 7.9624
35.125042 80.882 7.8971
35.379574 80.887 7.8415
35.635948 80.893 7.7901
35.894180 80.901 7.7384
36.154285 80.909 7.6861
36.416275 80.916 7.6313
36.680161 80.923 7.5731
36.945961 80.932 7.5103
37.213688 80.940 7.4421
37.483353 80.947 7.3654
37.754974 80.953 7.2851
38.028561 80.957 7.2043
38.304131 80.959 7.1251
38.581699 80.961 7.0511
38.861279 80.962 6.9811
39.142883 80.962 6.9150
39.426529 80.962 6.8531
39.712231 80.962 6.7959
40.000000 80.962 6.7421
40.289856 80.962 6.6905
40.581814 80.962 6.6411
40.875885 80.962 6.5933
41.172089 80.962 6.5471
41.470440 80.962 6.5025
41.770950 80.962 6.4591
42.073643 80.962 6.4164
42.378525 80.962 6.3741
42.685616 80.962 6.3317
42.994934 80.962 6.2891
43.306492 80.961 6.2456
43.620308 80.960 6.2021
43.936401 80.959 6.1583
44.254780 80.956 6.1171
44.575470 80.952 6.0797
44.898483 80.946 6.0500
45.223835 80.940 6.0325
45.551544 80.933 6.0260
45.881630 80.927 6.0320
46.214108 80.923 6.0480
46.548996 80.920 6.0726
46.886307 80.919 6.1029
47.226067 80.920 6.1369
47.568283 80.923 6.1709
47.912983 80.928 6.2010
48.260181 80.935 6.2260
48.609894 80.942 6.2442
48.962143 80.951 6.2540
49.316940 80.961 6.2527
49.674313 80.972 6.2420
50.034271 80.980 6.2220
50.396843 80.988 6.1950
50.762039 80.995 6.1629
51.129883 81.002 6.1281
51.500389 81.007 6.0928
51.873581 81.011 6.0591
52.249481 81.014 6.0297
52.628101 81.017 6.0040
53.009464 81.019 5.9817
53.393593 81.022 5.9640
53.780506 81.024 5.9536
54.170223 81.028 5.9470
54.562763 81.034 5.9436
54.958145 81.041 5.9370
55.356396 81.051 5.9202
55.757530 81.061 5.8950
56.161572 81.070 5.8602
56.568542 81.078 5.8181
56.978462 81.086 5.7705
57.391350 81.094 5.7181
57.807232 81.100 5.6610
58.226128 81.105 5.6021
58.648056 81.108 5.5443
59.073048 81.111 5.4881
59.501114 81.114 5.4357
59.932281 81.117 5.3841
60.366577 81.120 5.3320
60.804020 81.124 5.2771
61.244629 81.128 5.2157
61.688435 81.131 5.1501
62.135452 81.133 5.0809
62.585712 81.133 5.0091
63.039234 81.133 4.9356
63.496040 81.131 4.8611
63.956161 81.128 4.7851
64.419617 81.122 4.7131
64.886421 81.113 4.6498
65.356621 81.102 4.5981
65.830215 81.091 4.5630
66.307251 81.079 4.5430
66.787743 81.066 4.5376
67.271713 81.054 4.5490
67.759193 81.042 4.5804
68.250206 81.032 4.6279
68.744774 81.026 4.6916
69.242928 81.023 4.7629
69.744690 81.024 4.8340
70.250084 81.029 4.9019
70.759148 81.036 4.9616
71.271896 81.045 5.0109
71.788361 81.057 5.0461
72.308571 81.070 5.0660
72.832550 81.084 5.0672
73.360321 81.097 5.0530
73.891922 81.109 5.0249
74.427376 81.119 4.9851
74.966705 81.128 4.9347
75.509949 81.135 4.8781
76.057121 81.139 4.8193
76.608261 81.141 4.7611
77.163399 81.142 4.7076
77.722557 81.141 4.6591
78.285767 81.140 4.6164
78.853058 81.137 4.5821
79.424461 81.133 4.5590
80.000000 81.128 4.5470
80.579712 81.125 4.5492
81.163628 81.124 4.5590
81.751770 81.126 4.5721
82.344177 81.130 4.5840
82.940880 81.136 4.5886
83.541901 81.143 4.5860
84.147285 81.150 4.5740
84.757050 81.157 4.5530
85.371231 81.164 4.5226
85.989868 81.171 4.4841
86.612984 81.177 4.4379
87.240616 81.181 4.3871
87.872803 81.184 4.3345
88.509560 81.186 4.2811
89.150940 81.187 4.2294
89.796967 81.187 4.1781
90.447670 81.187 4.1270
91.103088 81.186 4.0761
91.763260 81.185 4.0254
92.428215 81.183 3.9751
93.097992 81.180 3.9247
93.772614 81.176 3.8771
94.452133 81.171 3.8345
95.136566 81.164 3.7981
95.825966 81.157 3.7701
96.520363 81.149 3.7500
97.219788 81.142 3.7381
97.924286 81.135 3.7340
98.633881 81.129 3.7382
99.348625 81.123 3.7480
100.068542 81.119 3.7617
100.793686 81.116 3.7770
101.524078 81.114 3.7908
102.259766 81.113 3.8030
103.000778 81.112 3.8121
103.747162 81.112 3.8180
104.498962 81.112 3.8197
105.256203 81.112 3.8180
106.018929 81.112 3.8133
106.787186 81.111 3.8060
107.561012 81.110 3.7962
108.340446 81.107 3.7860
109.125526 81.103 3.7766
109.916290 81.098 3.7710
110.712791 81.092 3.7724
111.515060 81.085 3.7820
112.323143 81.078 3.8028
113.137085 81.072 3.8329
113.956924 81.067 3.8719
114.782700 81.062 3.9189
115.614464 81.059 3.9741
116.452255 81.057 4.0339
117.296112 81.058 4.0967
118.146095 81.062 4.1569
119.002228 81.068 4.2080
119.864563 81.075 4.2509
120.733154 81.083 4.2844
121.608040 81.091 4.3080
122.489258 81.100 4.3208
123.376869 81.109 4.3220
124.270905 81.118 4.3082
125.171425 81.125 4.2860
126.078468 81.128 4.2602
126.992081 81.130 4.2331
127.912323 81.131 4.2084
128.839233 81.131 4.1860
129.772842 81.130 4.1658
130.713242 81.127 4.1510
131.660431 81.124 4.1459
132.614502 81.120 4.1480
133.575485 81.117 4.1567
134.543427 81.115 4.1700
135.518387 81.114 4.1857
136.500412 81.113 4.2030
137.489548 81.112 4.2204
138.485855 81.112 4.2380
139.489380 81.112 4.2550
140.500168 81.112 4.2720
141.518295 81.112 4.2893
142.543793 81.112 4.3070
143.576721 81.112 4.3251
144.617142 81.112 4.3440
145.665100 81.112 4.3635
146.720642 81.112 4.3839
147.783844 81.112 4.4054
148.854752 81.112 4.4279
149.933411 81.112 4.4514
151.019897 81.112 4.4759
152.114243 81.112 4.5016
153.216522 81.112 4.5289
154.326797 81.112 4.5584
155.445114 81.112 4.5899
156.571533 81.112 4.6230
157.706116 81.112 4.6589
158.848923 81.112 4.6985
160.000000 81.112 4.7419
161.159424 81.113 4.7898
162.327255 81.114 4.8419
163.503540 81.115 4.8988
164.688354 81.118 4.9589
165.881760 81.122 5.0216
167.083801 81.128 5.0838
168.294571 81.135 5.1420
169.514099 81.144 5.1969
170.742462 81.152 5.2485
171.979736 81.162 5.2949
173.225967 81.174 5.3344
174.481232 81.186 5.3659
175.745605 81.197 5.3860
177.019119 81.208 5.4000
178.301880 81.217 5.4123
179.593933 81.226 5.4230
180.895340 81.235 5.4336
182.206177 81.244 5.4440
183.526520 81.252 5.4537
184.856430 81.260 5.4650
186.195984 81.268 5.4808
187.545227 81.277 5.4980
188.904266 81.288 5.5143
190.273132 81.299 5.5300
191.651932 81.310 5.5460
193.040726 81.322 5.5580
194.439575 81.339 5.5639
195.848572 81.357 5.5580
197.267761 81.376 5.5328
198.697250 81.394 5.4921
200.137085 81.410 5.4374
201.587372 81.426 5.3692
203.048157 81.442 5.2880
204.519531 81.456 5.1953
206.001556 81.468 5.0902
207.494324 81.477 4.9793
208.997925 81.482 4.8690
210.512405 81.486 4.7593
212.037857 81.489 4.6534
213.574371 81.492 4.5473
215.122025 81.495 4.4397
216.680893 81.498 4.3253
218.251053 81.502 4.1987
219.832581 81.504 4.0584
221.425583 81.504 3.8993
223.030121 81.500 3.7275
224.646286 81.491 3.5446
226.274170 81.476 3.3595
227.913849 81.455 3.1771
229.565399 81.427 3.0104
231.228928 81.391 2.8712
232.904510 81.349 2.7673
234.592224 81.304 2.7105
236.292191 81.256 2.7010
238.004456 81.208 2.7440
239.729126 81.161 2.8347
241.466309 81.118 2.9734
243.216080 81.079 3.1495
244.978516 81.048 3.3553
246.753738 81.022 3.5823
248.541809 81.002 3.8210
250.342850 80.988 4.0673
252.156937 80.980 4.3152
253.984161 80.977 4.5603
255.824646 80.979 4.7975
257.678467 80.985 5.0225
259.545685 80.996 5.2293
261.426483 81.010 5.4176
263.320862 81.026 5.5848
265.229004 81.043 5.7306
267.150970 81.062 5.8544
269.086853 81.082 5.9537
271.036774 81.102 6.0245
273.000824 81.121 6.0719
274.979095 81.136 6.0982
276.971710 81.148 6.1090
278.978760 81.157 6.1094
281.000336 81.162 6.1030
283.036591 81.164 6.0923
285.087585 81.161 6.0860
287.153442 81.153 6.0920
289.234283 81.141 6.1149
291.330200 81.127 6.1614
293.441284 81.111 6.2338
295.567688 81.093 6.3355
297.709503 81.074 6.4696
299.866821 81.056 6.6424
302.039795 81.040 6.8473
304.228485 81.031 7.0828
306.433044 81.026 7.3402
308.653595 81.026 7.6123
310.890228 81.032 7.8932
313.143066 81.044 8.1772
315.412231 81.063 8.4562
317.697845 81.088 8.7219
320.000000 81.117 8.9703
322.318848 81.150 9.1941
324.654510 81.185 9.3954
327.007080 81.222 9.5734
329.376709 81.260 9.7295
331.763519 81.298 9.8644
334.167603 81.337 9.9797
336.589142 81.375 10.0769
339.028198 81.413 10.1578
341.484924 81.451 10.2243
343.959473 81.488 10.2769
346.451935 81.525 10.3158
348.962463 81.561 10.3429
351.491211 81.595 10.3593
354.038239 81.629 10.3670
356.603760 81.661 10.3676
359.187866 81.693 10.3630
361.790680 81.723 10.3557
364.412354 81.752 10.3450
367.053040 81.781 10.3311
369.712860 81.810 10.3151
372.391968 81.838 10.2981
375.090454 81.865 10.2801
377.808533 81.892 10.2617
380.546265 81.920 10.2421
383.303864 81.948 10.2208
386.081451 81.976 10.1961
388.879150 82.004 10.1656
391.697144 82.033 10.1311
394.535522 82.061 10.0941
397.394501 82.089 10.0531
400.274170 82.118 10.0083
403.174744 82.148 9.9572
406.096313 82.177 9.8951
409.039062 82.206 9.8282
412.003113 82.231 9.7602
414.988647 82.256 9.6932
417.995850 82.282 9.6321
421.024811 82.309 9.5722
424.075714 82.338 9.5113
427.148743 82.368 9.4472
430.244049 82.399 9.3792
433.361786 82.433 9.3013
436.502106 82.470 9.2092
439.665161 82.508 9.0974
442.851166 82.547 8.9580
446.060242 82.586 8.7936
449.292572 82.623 8.6019
452.548340 82.658 8.3887
455.827698 82.689 8.1573
459.130798 82.717 7.9118
462.457855 82.742 7.6583
465.809021 82.765 7.3949
469.184448 82.786 7.1229
472.584381 82.806 6.8389
476.008911 82.824 6.5403
479.458252 82.839 6.2260
482.932617 82.851 5.8941
486.432159 82.859 5.5451
489.957031 82.862 5.1737
493.507477 82.856 4.7952
497.083618 82.838 4.4161
500.685699 82.810 4.0581
504.313873 82.771 3.7402
507.968323 82.722 3.4767
511.649292 82.666 3.2866
515.356934 82.606 3.1752
519.091370 82.545 3.1569
522.852966 82.487 3.2236
526.641724 82.437 3.3795
530.458008 82.398 3.6032
534.301941 82.374 3.8835
538.173706 82.367 4.1929
542.073547 82.378 4.5080
546.001648 82.407 4.8050
549.958191 82.453 5.0579
553.943420 82.513 5.2505
557.957520 82.585 5.3608
562.000671 82.666 5.3801
566.073181 82.752 5.2922
570.175171 82.841 5.0968
574.306885 82.927 4.7888
578.468567 83.011 4.3666
582.660400 83.089 3.8249
586.882568 83.158 3.1705
591.135376 83.211 2.4031
595.419006 83.247 1.5391
599.733643 83.263 0.5847
604.079590 83.253 -0.4304
608.456970 83.214 -1.4948
612.866089 83.140 -2.5475
617.307190 83.025 -3.5440
621.780457 82.875 -4.4234
626.286133 82.690 -5.1229
630.824463 82.478 -5.6038
635.395691 82.240 -5.8090
640.000000 81.991 -5.7308
644.637695 81.738 -5.3260
649.309021 81.500 -4.6438
654.014160 81.294 -3.6958
658.753418 81.125 -2.5531
663.527039 81.003 -1.2682
668.335205 80.927 0.0904
673.178284 80.908 1.4536
678.056396 80.933 2.7697
682.969849 80.996 3.9663
687.918945 81.089 5.0355
692.903870 81.200 5.9446
697.924927 81.327 6.6976
702.982422 81.462 7.2829
708.076477 81.600 7.7157
713.207520 81.736 8.0011
718.375732 81.868 8.1586
723.581360 81.992 8.2081
728.824707 82.111 8.1534
734.106079 82.225 8.0013
739.425720 82.331 7.7630
744.783936 82.422 7.4466
750.180908 82.501 7.0675
755.617065 82.570 6.6402
761.092529 82.626 6.1747
766.607727 82.668 5.6816
772.162903 82.696 5.1738
777.758301 82.711 4.6636
783.394287 82.714 4.1637
789.071045 82.703 3.6877
794.789001 82.681 3.2455
800.548340 82.650 2.8504
806.349487 82.610 2.5061
812.192627 82.563 2.2206
818.078125 82.511 1.9947
824.006226 82.456 1.8300
829.977295 82.397 1.7322
835.991699 82.335 1.7076
842.049622 82.273 1.7567
848.151428 82.216 1.8851
854.297485 82.163 2.0841
860.488098 82.118 2.3494
866.723572 82.082 2.6727
873.004211 82.056 3.0496
879.330322 82.044 3.4645
885.702332 82.048 3.9097
892.120483 82.069 4.3574
898.585144 82.111 4.7831
905.096680 82.169 5.1697
911.655396 82.239 5.4957
918.261597 82.321 5.7502
924.915710 82.416 5.9207
931.618042 82.520 5.9909
938.368896 82.630 5.9392
945.168762 82.743 5.7689
952.017822 82.850 5.4746
958.916504 82.952 5.0608
965.865234 83.047 4.5273
972.864319 83.131 3.8826
979.914062 83.198 3.1258
987.014954 83.246 2.2853
994.167236 83.269 1.3772
1001.371399 83.267 0.4374
1008.627747 83.238 -0.5081
1015.936646 83.181 -1.4133
1023.298584 83.092 -2.2343
1030.713867 82.979 -2.9389
1038.182739 82.850 -3.4776
1045.705933 82.711 -3.8597
1053.283447 82.570 -4.0679
1060.916016 82.433 -4.1320
1068.603882 82.307 -4.0618
1076.347412 82.196 -3.9008
1084.147095 82.110 -3.6842
1092.003296 82.040 -3.4478
1099.916382 81.987 -3.2377
1107.886841 81.943 -3.0577
1115.915039 81.904 -2.9343
1124.001343 81.863 -2.8453
1132.146362 81.815 -2.7871
1140.350342 81.759 -2.7293
