* Measurement data measured by REW V5.20.13
* Source: C:\Users\kurin\Desktop\Targets and Curves\Resolve\Img\Files\Audeze lcd xc_SPL.txt
* Format: Comma/Tab/Space delimited data
* Dated: Aug 14, 2023 2:59:58 PM
* REW Settings:
*  C-weighting compensation: Off
*  Target level: 75.0 dB
* Note: ; Measurement imported from C:\Users\kurin\Desktop\Targets and Curves\Resolve\Img\Files\Audeze lcd xc_SPL.txt Format: Comma/Tab/Space delimited data 623 values loaded, 5 Hz to 39,792 Hz log spaced 
* Measurement: Audeze lcd xc_SPL
* Smoothing: 1/48 octave
* Frequency Step: 1/96 octave
* Start Frequency: 5.000 Hz
*
* Freq(Hz) SPL(dB) Phase(degrees)
5.000000 80.515 23.9790
5.036232 80.523 23.9752
5.072727 80.531 23.9710
5.109486 80.541 23.9658
5.146511 80.552 23.9600
5.183805 80.565 23.9536
5.221369 80.580 23.9470
5.259205 80.595 23.9411
5.297316 80.611 23.9350
5.335702 80.628 23.9281
5.374367 80.646 23.9210
5.413311 80.663 23.9144
5.452538 80.680 23.9080
5.492050 80.697 23.9016
5.531847 80.715 23.8950
5.571934 80.732 23.8880
5.612310 80.749 23.8810
5.652979 80.766 23.8745
5.693943 80.784 23.8680
5.735204 80.801 23.8611
5.776763 80.818 23.8540
5.818624 80.835 23.8470
5.860788 80.853 23.8400
5.903258 80.870 23.8330
5.946035 80.887 23.8260
5.989123 80.904 23.8190
6.032523 80.922 23.8120
6.076237 80.939 23.8050
6.120268 80.956 23.7980
6.164618 80.973 23.7911
6.209289 80.991 23.7840
6.254284 81.009 23.7766
6.299605 81.026 23.7690
6.345255 81.043 23.7615
6.391235 81.060 23.7540
6.437549 81.077 23.7465
6.484198 81.095 23.7390
6.531185 81.112 23.7315
6.578513 81.129 23.7240
6.626183 81.146 23.7166
6.674199 81.164 23.7090
6.722563 81.181 23.7010
6.771278 81.198 23.6930
6.820345 81.215 23.6855
6.869768 81.233 23.6780
6.919549 81.250 23.6701
6.969691 81.267 23.6620
7.020196 81.284 23.6541
7.071068 81.302 23.6460
7.122308 81.319 23.6375
7.173919 81.336 23.6290
7.225904 81.353 23.6210
7.278266 81.371 23.6130
7.331007 81.388 23.6046
7.384131 81.405 23.5960
7.437639 81.422 23.5875
7.491535 81.440 23.5790
7.545822 81.458 23.5705
7.600502 81.475 23.5620
7.655579 81.492 23.5536
7.711054 81.509 23.5450
7.766932 81.526 23.5361
7.823214 81.544 23.5270
7.879904 81.561 23.5180
7.937005 81.578 23.5090
7.994520 81.595 23.5000
8.052452 81.613 23.4910
8.110803 81.630 23.4821
8.169578 81.647 23.4730
8.228777 81.664 23.4635
8.288406 81.682 23.4540
8.348468 81.699 23.4450
8.408964 81.716 23.4360
8.469899 81.733 23.4266
8.531276 81.751 23.4170
8.593097 81.768 23.4076
8.655366 81.785 23.3980
8.718086 81.802 23.3881
8.781260 81.820 23.3780
8.844893 81.837 23.3680
8.908987 81.854 23.3580
8.973545 81.871 23.3480
9.038571 81.889 23.3380
9.104069 81.907 23.3280
9.170040 81.924 23.3180
9.236490 81.941 23.3081
9.303422 81.958 23.2980
9.370838 81.975 23.2876
9.438744 81.993 23.2770
9.507140 82.010 23.2665
9.576033 82.027 23.2560
9.645425 82.044 23.2455
9.715320 82.062 23.2350
9.785721 82.079 23.2246
9.856632 82.096 23.2140
9.928058 82.113 23.2031
10.000000 82.131 23.1920
10.072464 82.148 23.1810
10.145453 82.165 23.1700
10.218971 82.182 23.1591
10.293022 82.200 23.1480
10.367610 82.217 23.1366
10.442738 82.234 23.1250
10.518411 82.251 23.1135
10.594631 82.269 23.1020
10.671404 82.286 23.0905
10.748734 82.303 23.0790
10.826623 82.320 23.0676
10.905077 82.338 23.0560
10.984100 82.356 23.0441
11.063695 82.373 23.0320
11.143867 82.390 23.0200
11.224621 82.407 23.0080
11.305959 82.424 22.9960
11.387886 82.442 22.9840
11.470407 82.459 22.9721
11.553527 82.476 22.9600
11.637249 82.493 22.9476
11.721577 82.511 22.9350
11.806517 82.528 22.9225
11.892071 82.545 22.9100
11.978246 82.562 22.8975
12.065045 82.580 22.8850
12.152473 82.597 22.8726
12.240536 82.614 22.8600
12.329235 82.631 22.8471
12.418578 82.649 22.8340
12.508568 82.666 22.8211
12.599211 82.683 22.8080
12.690510 82.700 22.7945
12.782471 82.718 22.7810
12.875097 82.735 22.7680
12.968395 82.752 22.7550
13.062370 82.769 22.7416
13.157025 82.787 22.7280
13.252366 82.805 22.7145
13.348398 82.822 22.7010
13.445127 82.839 22.6876
13.542556 82.856 22.6740
13.640691 82.873 22.6601
13.739536 82.891 22.6460
13.839099 82.908 22.6320
13.939383 82.925 22.6180
14.040393 82.942 22.6040
14.142136 82.960 22.5900
14.244616 82.977 22.5761
14.347837 82.994 22.5620
14.451808 83.011 22.5476
14.556532 83.029 22.5330
14.662014 83.046 22.5185
14.768262 83.063 22.5040
14.875278 83.080 22.4895
14.983070 83.098 22.4750
15.091644 83.115 22.4606
15.201005 83.132 22.4460
15.311157 83.149 22.4311
15.422109 83.167 22.4160
15.533863 83.184 22.4010
15.646428 83.201 22.3860
15.759809 83.218 22.3710
15.874010 83.236 22.3560
15.989040 83.254 22.3410
16.104904 83.271 22.3260
16.221605 83.288 22.3111
16.339155 83.305 22.2960
16.457554 83.322 22.2806
16.576813 83.340 22.2650
16.696936 83.357 22.2495
16.817928 83.374 22.2340
16.939798 83.391 22.2186
17.062551 83.409 22.2030
17.186193 83.426 22.1871
17.310732 83.443 22.1710
17.436172 83.460 22.1550
17.562521 83.478 22.1390
17.689787 83.495 22.1231
17.817974 83.512 22.1070
17.947090 83.529 22.0906
18.077143 83.547 22.0740
18.208138 83.564 22.0571
18.340080 83.581 22.0400
18.472980 83.598 22.0231
18.606844 83.616 22.0060
18.741676 83.633 21.9882
18.877487 83.650 21.9700
19.014280 83.667 21.9518
19.152065 83.685 21.9330
19.290850 83.702 21.9134
19.430639 83.719 21.8930
19.571442 83.736 21.8721
19.713264 83.754 21.8500
19.856115 83.772 21.8265
20.000000 83.789 21.8010
20.144928 83.806 21.7731
20.290907 83.823 21.7420
20.437943 83.840 21.7074
20.586044 83.857 21.6680
20.735220 83.874 21.6222
20.885475 83.889 21.5711
21.036821 83.902 21.5144
21.189262 83.913 21.4551
21.342808 83.922 21.3935
21.497467 83.927 21.3371
21.653246 83.928 21.2907
21.810154 83.925 21.2620
21.968201 83.920 21.2594
22.127390 83.913 21.2850
22.287735 83.906 21.3446
22.449242 83.899 21.4349
22.611917 83.895 21.5567
22.775772 83.895 21.7038
22.940815 83.899 21.8733
23.107054 83.909 22.0557
23.274498 83.925 22.2430
23.443153 83.945 22.4277
23.613033 83.970 22.5996
23.784142 83.998 22.7589
23.956491 84.027 22.9008
24.130091 84.057 23.0309
24.304947 84.085 23.1500
24.481071 84.111 23.2668
24.658470 84.136 23.3884
24.837156 84.159 23.5208
25.017136 84.181 23.6713
25.198421 84.203 23.8438
25.381020 84.227 24.0436
25.564941 84.253 24.2738
25.750195 84.281 24.5424
25.936790 84.316 24.8396
26.124741 84.363 25.1627
26.314051 84.420 25.4975
26.504732 84.488 25.8324
26.696796 84.567 26.1576
26.890253 84.658 26.4662
27.085112 84.763 26.7387
27.281382 84.882 26.9593
27.479073 85.014 27.1108
27.678198 85.155 27.1744
27.878765 85.305 27.1391
28.080786 85.460 26.9898
28.284271 85.618 26.7205
28.489231 85.775 26.3190
28.695675 85.927 25.7878
28.903616 86.070 25.1216
29.113064 86.200 24.3312
29.324028 86.315 23.4159
29.536524 86.409 22.4052
29.750557 86.475 21.3153
29.966141 86.515 20.1852
30.183289 86.525 19.0469
30.402010 86.508 17.9373
30.622314 86.462 16.8943
30.844217 86.392 15.9481
31.067726 86.299 15.1379
31.292856 86.191 14.4749
31.519617 86.072 13.9873
31.748020 85.951 13.6623
31.978081 85.835 13.5060
32.209808 85.729 13.4889
32.443211 85.639 13.5955
32.678310 85.567 13.7897
32.915108 85.518 14.0408
33.153625 85.490 14.3177
33.393871 85.482 14.5847
33.635857 85.491 14.8237
33.879597 85.515 15.0068
34.125103 85.550 15.1269
34.372387 85.591 15.1643
34.621464 85.634 15.1281
34.872345 85.674 15.0160
35.125042 85.709 14.8432
35.379574 85.737 14.6198
35.635948 85.758 14.3593
35.894180 85.770 14.0724
36.154285 85.773 13.7784
36.416275 85.763 13.4980
36.680161 85.745 13.2384
36.945961 85.724 13.0140
37.213688 85.700 12.8243
37.483353 85.671 12.6727
37.754974 85.641 12.5611
38.028561 85.611 12.4955
38.304131 85.583 12.4670
38.581699 85.560 12.4713
38.861279 85.540 12.5009
39.142883 85.524 12.5478
39.426529 85.513 12.6099
39.712231 85.506 12.6856
40.000000 85.503 12.7659
40.289856 85.507 12.8424
40.581814 85.516 12.9109
40.875885 85.527 12.9646
41.172089 85.542 13.0030
41.470440 85.559 13.0244
41.770950 85.579 13.0250
42.073643 85.600 12.9989
42.378525 85.621 12.9501
42.685616 85.640 12.8787
42.994934 85.657 12.7901
43.306492 85.672 12.6889
43.620308 85.685 12.5772
43.936401 85.695 12.4574
44.254780 85.703 12.3332
44.575470 85.708 12.2081
44.898483 85.711 12.0842
45.223835 85.712 11.9646
45.551544 85.711 11.8492
45.881630 85.709 11.7377
46.214108 85.704 11.6332
46.548996 85.697 11.5373
46.886307 85.688 11.4541
47.226067 85.677 11.3883
47.568283 85.666 11.3401
47.912983 85.655 11.3115
48.260181 85.644 11.3020
48.609894 85.633 11.3122
48.962143 85.624 11.3399
49.316940 85.618 11.3866
49.674313 85.615 11.4429
50.034271 85.618 11.5020
50.396843 85.625 11.5579
50.762039 85.634 11.6017
51.129883 85.645 11.6350
51.500389 85.656 11.6558
51.873581 85.667 11.6660
52.249481 85.678 11.6651
52.628101 85.689 11.6570
53.009464 85.698 11.6432
53.393593 85.705 11.6300
53.780506 85.710 11.6234
54.170223 85.714 11.6260
54.562763 85.718 11.6436
54.958145 85.723 11.6719
55.356396 85.731 11.7106
55.757530 85.742 11.7539
56.161572 85.755 11.7975
56.568542 85.771 11.8379
56.978462 85.789 11.8716
57.391350 85.809 11.8950
57.807232 85.831 11.9026
58.226128 85.854 11.8970
58.648056 85.875 11.8765
59.073048 85.895 11.8481
59.501114 85.913 11.8184
59.932281 85.930 11.7871
60.366577 85.948 11.7561
60.804020 85.967 11.7251
61.244629 85.984 11.6945
61.688435 86.002 11.6641
62.135452 86.022 11.6360
62.585712 86.044 11.6031
63.039234 86.068 11.5586
63.496040 86.093 11.5031
63.956161 86.117 11.4346
64.419617 86.140 11.3542
64.886421 86.164 11.2620
65.356621 86.187 11.1582
65.830215 86.209 11.0409
66.307251 86.228 10.9163
66.787743 86.243 10.7892
67.271713 86.256 10.6622
67.759193 86.269 10.5395
68.250206 86.281 10.4212
68.744774 86.290 10.3081
69.242928 86.298 10.2022
69.744690 86.307 10.1075
70.250084 86.316 10.0192
70.759148 86.327 9.9340
71.271896 86.338 9.8512
71.788361 86.349 9.7687
72.308571 86.360 9.6862
72.832550 86.372 9.6023
73.360321 86.385 9.5172
73.891922 86.397 9.4303
74.427376 86.410 9.3422
74.966705 86.423 9.2535
75.509949 86.436 9.1632
76.057121 86.449 9.0696
76.608261 86.462 8.9742
77.163399 86.474 8.8778
77.722557 86.487 8.7802
78.285767 86.500 8.6820
78.853058 86.514 8.5812
79.424461 86.528 8.4758
80.000000 86.541 8.3672
80.579712 86.554 8.2558
81.163628 86.567 8.1422
81.751770 86.579 8.0270
82.344177 86.592 7.9102
82.940880 86.605 7.7923
83.541901 86.618 7.6722
84.147285 86.631 7.5496
84.757050 86.644 7.4232
85.371231 86.657 7.2925
85.989868 86.671 7.1563
86.612984 86.684 7.0134
87.240616 86.697 6.8643
87.872803 86.709 6.7090
88.509560 86.721 6.5473
89.150940 86.733 6.3789
89.796967 86.743 6.2044
90.447670 86.751 6.0230
91.103088 86.758 5.8394
91.763260 86.762 5.6574
92.428215 86.764 5.4784
93.097992 86.765 5.3049
93.772614 86.766 5.1363
94.452133 86.766 4.9733
95.136566 86.766 4.8143
95.825966 86.766 4.6587
96.520363 86.766 4.5053
97.219788 86.766 4.3531
97.924286 86.766 4.2013
98.633881 86.766 4.0491
99.348625 86.766 3.8953
100.068542 86.766 3.7387
100.793686 86.765 3.5794
101.524078 86.764 3.4169
102.259766 86.761 3.2524
103.000778 86.757 3.0857
103.747162 86.751 2.9213
104.498962 86.742 2.7628
105.256203 86.732 2.6123
106.018929 86.721 2.4733
106.787186 86.710 2.3452
107.561012 86.698 2.2294
108.340446 86.687 2.1242
109.125526 86.677 2.0293
109.916290 86.668 1.9422
110.712791 86.661 1.8615
111.515060 86.656 1.7822
112.323143 86.653 1.6988
113.137085 86.651 1.6102
113.956924 86.650 1.5132
114.782700 86.649 1.4083
115.614464 86.648 1.2946
116.452255 86.647 1.1732
117.296112 86.644 1.0434
118.146095 86.640 0.9093
119.002228 86.633 0.7733
119.864563 86.624 0.6404
120.733154 86.613 0.5163
121.608040 86.602 0.4002
122.489258 86.591 0.2937
123.376869 86.580 0.1952
124.270905 86.569 0.1046
125.171425 86.558 0.0202
126.078468 86.548 -0.0582
126.992081 86.540 -0.1358
127.912323 86.534 -0.2185
128.839233 86.529 -0.3058
129.772842 86.523 -0.4009
130.713242 86.515 -0.4988
131.660431 86.506 -0.5966
132.614502 86.496 -0.6917
133.575485 86.485 -0.7808
134.543427 86.474 -0.8638
135.518387 86.462 -0.9394
136.500412 86.451 -1.0089
137.489548 86.441 -1.0716
138.485855 86.432 -1.1318
139.489380 86.425 -1.1925
140.500168 86.420 -1.2569
141.518295 86.415 -1.3296
142.543793 86.410 -1.4088
143.576721 86.404 -1.4957
144.617142 86.396 -1.5848
145.665100 86.386 -1.6717
146.720642 86.375 -1.7548
147.783844 86.364 -1.8307
148.854752 86.353 -1.8998
149.933411 86.342 -1.9612
151.019897 86.331 -2.0159
152.114243 86.321 -2.0629
153.216522 86.313 -2.1069
154.326797 86.307 -2.1507
155.445114 86.303 -2.1989
156.571533 86.301 -2.2571
157.706116 86.300 -2.3248
158.848923 86.298 -2.4035
160.000000 86.296 -2.4928
161.159424 86.294 -2.5941
162.327255 86.291 -2.7037
163.503540 86.285 -2.8202
164.688354 86.277 -2.9387
165.881760 86.267 -3.0535
167.083801 86.256 -3.1657
168.294571 86.245 -3.2747
169.514099 86.233 -3.3807
170.742462 86.220 -3.4832
171.979736 86.207 -3.5837
173.225967 86.195 -3.6836
174.481232 86.183 -3.7838
175.745605 86.169 -3.8864
177.019119 86.155 -3.9897
178.301880 86.140 -4.0935
179.593933 86.124 -4.1957
180.895340 86.106 -4.2958
182.206177 86.087 -4.3898
183.526520 86.066 -4.4731
184.856430 86.045 -4.5468
186.195984 86.025 -4.6089
187.545227 86.006 -4.6649
188.904266 85.988 -4.7201
190.273132 85.971 -4.7739
191.651932 85.953 -4.8276
193.040726 85.935 -4.8809
194.439575 85.918 -4.9328
195.848572 85.902 -4.9858
197.267761 85.886 -5.0434
198.697250 85.869 -5.1019
200.137085 85.850 -5.1598
201.587372 85.830 -5.2139
203.048157 85.809 -5.2583
204.519531 85.789 -5.2989
206.001556 85.772 -5.3397
207.494324 85.754 -5.3799
208.997925 85.734 -5.4213
210.512405 85.713 -5.4599
212.037857 85.693 -5.4904
213.574371 85.673 -5.5189
215.122025 85.656 -5.5503
216.680893 85.638 -5.5829
218.251053 85.618 -5.6182
219.832581 85.598 -5.6519
221.425583 85.577 -5.6781
223.030121 85.556 -5.7029
224.646286 85.538 -5.7319
226.274170 85.519 -5.7619
227.913849 85.497 -5.7939
229.565399 85.474 -5.8219
231.228928 85.450 -5.8389
232.904510 85.425 -5.8490
234.592224 85.403 -5.8542
236.292191 85.380 -5.8540
238.004456 85.356 -5.8491
239.729126 85.332 -5.8380
241.466309 85.309 -5.8176
243.216080 85.287 -5.7931
244.978516 85.267 -5.7681
246.753738 85.248 -5.7441
248.541809 85.230 -5.7237
250.342850 85.212 -5.7060
252.156937 85.194 -5.6910
253.984161 85.176 -5.6790
255.824646 85.158 -5.6709
257.678467 85.140 -5.6650
259.545685 85.121 -5.6598
261.426483 85.102 -5.6560
263.320862 85.083 -5.6539
265.229004 85.063 -5.6530
267.150970 85.042 -5.6531
269.086853 85.021 -5.6530
271.036774 84.999 -5.6507
273.000824 84.976 -5.6480
274.979095 84.954 -5.6463
276.971710 84.932 -5.6450
278.978760 84.907 -5.6454
281.000336 84.881 -5.6430
283.036591 84.853 -5.6337
285.087585 84.824 -5.6181
287.153442 84.795 -5.5952
289.234283 84.766 -5.5651
291.330200 84.735 -5.5289
293.441284 84.703 -5.4821
295.567688 84.670 -5.4205
297.709503 84.636 -5.3452
299.866821 84.604 -5.2549
302.039795 84.574 -5.1533
304.228485 84.545 -5.0428
306.433044 84.518 -4.9263
308.653595 84.493 -4.8074
310.890228 84.469 -4.6873
313.143066 84.447 -4.5686
315.412231 84.425 -4.4513
317.697845 84.404 -4.3348
320.000000 84.385 -4.2233
322.318848 84.368 -4.1220
324.654510 84.351 -4.0273
327.007080 84.331 -3.9388
329.376709 84.309 -3.8523
331.763519 84.288 -3.7619
334.167603 84.266 -3.6713
336.589142 84.245 -3.5830
339.028198 84.223 -3.4943
341.484924 84.198 -3.4037
343.959473 84.173 -3.3103
346.451935 84.149 -3.2117
348.962463 84.124 -3.1103
351.491211 84.099 -3.0081
354.038239 84.073 -2.9033
356.603760 84.046 -2.7944
359.187866 84.019 -2.6823
361.790680 83.992 -2.5690
364.412354 83.964 -2.4503
367.053040 83.933 -2.3238
369.712860 83.901 -2.1874
372.391968 83.870 -2.0378
375.090454 83.839 -1.8775
377.808533 83.808 -1.7089
380.546265 83.776 -1.5296
383.303864 83.744 -1.3363
386.081451 83.713 -1.1326
388.879150 83.685 -0.9198
391.697144 83.658 -0.7007
394.535522 83.631 -0.4787
397.394501 83.605 -0.2527
400.274170 83.580 -0.0218
403.174744 83.556 0.2123
406.096313 83.533 0.4473
409.039062 83.509 0.6863
412.003113 83.485 0.9323
414.988647 83.461 1.1822
417.995850 83.441 1.4338
421.024811 83.421 1.6872
424.075714 83.399 1.9405
427.148743 83.377 2.1982
430.244049 83.355 2.4652
433.361786 83.333 2.7381
436.502106 83.313 3.0142
439.665161 83.292 3.2961
442.851166 83.270 3.5848
446.060242 83.247 3.8831
449.292572 83.226 4.1957
452.548340 83.205 4.5180
455.827698 83.186 4.8456
459.130798 83.168 5.1819
462.457855 83.149 5.5284
465.809021 83.130 5.8868
469.184448 83.113 6.2600
472.584381 83.097 6.6458
476.008911 83.083 7.0426
479.458252 83.070 7.4517
482.932617 83.059 7.8740
486.432159 83.051 8.3086
489.957031 83.045 8.7569
493.507477 83.043 9.2126
497.083618 83.046 9.6713
500.685699 83.054 10.1285
504.313873 83.065 10.5772
507.968323 83.078 11.0196
511.649292 83.092 11.4559
515.356934 83.109 11.8846
519.091370 83.130 12.3042
522.852966 83.152 12.7147
526.641724 83.174 13.1136
530.458008 83.197 13.5057
534.301941 83.220 13.8950
538.173706 83.244 14.2807
542.073547 83.270 14.6633
546.001648 83.298 15.0427
549.958191 83.326 15.4194
553.943420 83.356 15.7928
557.957520 83.387 16.1631
562.000671 83.421 16.5278
566.073181 83.457 16.8843
570.175171 83.494 17.2329
574.306885 83.533 17.5737
578.468567 83.573 17.9049
582.660400 83.615 18.2247
586.882568 83.659 18.5319
591.135376 83.703 18.8241
595.419006 83.747 19.1041
599.733643 83.791 19.3728
604.079590 83.834 19.6341
608.456970 83.876 19.8928
612.866089 83.919 20.1462
617.307190 83.964 20.3932
621.780457 84.011 20.6332
626.286133 84.057 20.8652
630.824463 84.103 21.0893
635.395691 84.151 21.3064
640.000000 84.200 21.5133
644.637695 84.249 21.7063
649.309021 84.299 21.8874
654.014160 84.347 22.0570
658.753418 84.396 22.2165
663.527039 84.445 22.3674
668.335205 84.493 22.5095
673.178284 84.540 22.6429
678.056396 84.587 22.7686
682.969849 84.634 22.8892
687.918945 84.681 23.0006
692.903870 84.729 23.0995
697.924927 84.777 23.1867
702.982422 84.823 23.2612
708.076477 84.868 23.3248
713.207520 84.912 23.3791
718.375732 84.954 23.4239
723.581360 84.995 23.4578
728.824707 85.034 23.4849
734.106079 85.069 23.5076
739.425720 85.102 23.5289
744.783936 85.133 23.5520
750.180908 85.161 23.5789
755.617065 85.186 23.6119
761.092529 85.209 23.6538
766.607727 85.231 23.7084
772.162903 85.252 23.7747
777.758301 85.272 23.8519
783.394287 85.292 23.9437
789.071045 85.309 24.0543
794.789001 85.327 24.1815
800.548340 85.348 24.3264
806.349487 85.371 24.4824
812.192627 85.396 24.6424
818.078125 85.422 24.8094
824.006226 85.448 24.9849
829.977295 85.476 25.1663
835.991699 85.508 25.3527
842.049622 85.543 25.5403
848.151428 85.579 25.7242
854.297485 85.616 25.9073
860.488098 85.654 26.0930
866.723572 85.695 26.2753
873.004211 85.741 26.4518
879.330322 85.790 26.6154
885.702332 85.841 26.7574
892.120483 85.894 26.8806
898.585144 85.945 26.9855
905.096680 85.996 27.0707
911.655396 86.048 27.1352
918.261597 86.100 27.1789
924.915710 86.148 27.1976
931.618042 86.193 27.2020
938.368896 86.232 27.1991
945.168762 86.267 27.1950
952.017822 86.298 27.1969
958.916504 86.326 27.2089
965.865234 86.349 27.2356
972.864319 86.370 27.2828
979.914062 86.387 27.3577
987.014954 86.404 27.4616
994.167236 86.421 27.5984
1001.371399 86.440 27.7663
1008.627747 86.460 27.9648
1015.936646 86.482 28.1930
1023.298584 86.508 28.4528
1030.713867 86.540 28.7361
