* Measurement data measured by REW V5.20.13
* Source: C:\Users\kurin\Desktop\Targets and Curves\Resolve\Img\Files\HD600_SPL.txt
* Format: Comma/Tab/Space delimited data
* Dated: Aug 14, 2023 4:49:34 PM
* REW Settings:
*  C-weighting compensation: Off
*  Target level: 75.0 dB
* Note: ; Measurement imported from C:\Users\kurin\Desktop\Targets and Curves\Resolve\Img\Files\HD600_SPL.txt Format: Comma/Tab/Space delimited data 623 values loaded, 5 Hz to 39,792 Hz log spaced 
* Measurement: HD600_SPL
* Smoothing: 1/48 octave
* Frequency Step: 1/96 octave
* Start Frequency: 5.000 Hz
*
* Freq(Hz) SPL(dB) Phase(degrees)
5.000000 68.513 82.3710
5.036232 68.540 82.3547
5.072727 68.569 82.3370
5.109486 68.603 82.3159
5.146511 68.642 82.2920
5.183805 68.689 82.2647
5.221369 68.741 82.2360
5.259205 68.794 82.2079
5.297316 68.849 82.1790
5.335702 68.908 82.1482
5.374367 68.969 82.1170
5.413311 69.029 82.0869
5.452538 69.089 82.0570
5.492050 69.149 82.0266
5.531847 69.209 81.9960
5.571934 69.269 81.9656
5.612310 69.329 81.9350
5.652979 69.389 81.9041
5.693943 69.449 81.8730
5.735204 69.509 81.8416
5.776763 69.569 81.8100
5.818624 69.629 81.7781
5.860788 69.689 81.7460
5.903258 69.749 81.7141
5.946035 69.809 81.6820
5.989123 69.868 81.6496
6.032523 69.928 81.6170
6.076237 69.988 81.5841
6.120268 70.048 81.5510
6.164618 70.108 81.5176
6.209289 70.168 81.4840
6.254284 70.228 81.4501
6.299605 70.288 81.4160
6.345255 70.348 81.3816
6.391235 70.408 81.3470
6.437549 70.468 81.3121
6.484198 70.528 81.2770
6.531185 70.588 81.2421
6.578513 70.648 81.2070
6.626183 70.708 81.1712
6.674199 70.768 81.1350
6.722563 70.828 81.0986
6.771278 70.888 81.0620
6.820345 70.948 81.0256
6.869768 71.008 80.9890
6.919549 71.068 80.9517
6.969691 71.128 80.9140
7.020196 71.188 80.8761
7.071068 71.248 80.8380
7.122308 71.308 80.8001
7.173919 71.368 80.7620
7.225904 71.428 80.7232
7.278266 71.488 80.6840
7.331007 71.548 80.6446
7.384131 71.608 80.6050
7.437639 71.667 80.5651
7.491535 71.727 80.5250
7.545822 71.787 80.4847
7.600502 71.847 80.4440
7.655579 71.907 80.4026
7.711054 71.967 80.3610
7.766932 72.027 80.3196
7.823214 72.087 80.2780
7.879904 72.147 80.2357
7.937005 72.207 80.1930
7.994520 72.267 80.1502
8.052452 72.327 80.1070
8.110803 72.387 80.0631
8.169578 72.447 80.0190
8.228777 72.507 79.9751
8.288406 72.567 79.9310
8.348468 72.627 79.8862
8.408964 72.687 79.8410
8.469899 72.747 79.7957
8.531276 72.807 79.7500
8.593097 72.867 79.7037
8.655366 72.927 79.6570
8.718086 72.987 79.6101
8.781260 73.047 79.5630
8.844893 73.107 79.5156
8.908987 73.167 79.4680
8.973545 73.227 79.4203
9.038571 73.287 79.3720
9.104069 73.346 79.3227
9.170040 73.406 79.2730
9.236490 73.466 79.2236
9.303422 73.526 79.1740
9.370838 73.586 79.1238
9.438744 73.646 79.0730
9.507140 73.706 79.0217
9.576033 73.766 78.9700
9.645425 73.826 78.9182
9.715320 73.886 78.8660
9.785721 73.946 78.8138
9.856632 74.006 78.7610
9.928058 74.066 78.7073
10.000000 74.126 78.6530
10.072464 74.186 78.5987
10.145453 74.246 78.5441
10.218971 74.306 78.4892
10.293022 74.366 78.4340
10.367610 74.426 78.3783
10.442738 74.486 78.3220
10.518411 74.546 78.2653
10.594631 74.606 78.2080
10.671404 74.666 78.1502
10.748734 74.726 78.0920
10.826623 74.786 78.0338
10.905077 74.846 77.9750
10.984100 74.906 77.9153
11.063695 74.966 77.8550
11.143867 75.026 77.7947
11.224621 75.086 77.7340
11.305959 75.145 77.6727
11.387886 75.205 77.6110
11.470407 75.265 77.5493
11.553527 75.325 77.4870
11.637249 75.385 77.4238
11.721577 75.445 77.3601
11.806517 75.505 77.2958
11.892071 75.565 77.2311
11.978246 75.625 77.1658
12.065045 75.685 77.1000
12.152473 75.745 77.0338
12.240536 75.805 76.9670
12.329235 75.865 76.8998
12.418578 75.925 76.8321
12.508568 75.985 76.7638
12.599211 76.045 76.6950
12.690510 76.105 76.6258
12.782471 76.165 76.5561
12.875097 76.225 76.4859
12.968395 76.285 76.4151
13.062370 76.345 76.3434
13.157025 76.405 76.2710
13.252366 76.465 76.1984
13.348398 76.525 76.1251
13.445127 76.585 76.0508
13.542556 76.645 75.9761
13.640691 76.705 75.9014
13.739536 76.765 75.8260
13.839099 76.824 75.7494
13.939383 76.884 75.6721
14.040393 76.944 75.5949
14.142136 77.004 75.5170
14.244616 77.064 75.4379
14.347837 77.124 75.3580
14.451808 77.184 75.2778
14.556532 77.244 75.1970
14.662014 77.304 75.1159
14.768262 77.364 75.0341
14.875278 77.424 74.9510
14.983070 77.484 74.8671
15.091644 77.544 74.7829
15.201005 77.604 74.6981
15.311157 77.664 74.6119
15.422109 77.724 74.5251
15.533863 77.784 74.4379
15.646428 77.844 74.3500
15.759809 77.904 74.2614
15.874010 77.964 74.1721
15.989040 78.024 74.0820
16.104904 78.084 73.9911
16.221605 78.144 73.8990
16.339155 78.204 73.8061
16.457554 78.264 73.7130
16.576813 78.324 73.6191
16.696936 78.384 73.5235
16.817928 78.444 73.4271
16.939798 78.503 73.3305
17.062551 78.563 73.2331
17.186193 78.623 73.1346
17.310732 78.683 73.0351
17.436172 78.743 72.9345
17.562521 78.803 72.8331
17.689787 78.863 72.7310
17.817974 78.923 72.6281
17.947090 78.983 72.5241
18.077143 79.043 72.4191
18.208138 79.103 72.3131
18.340080 79.163 72.2061
18.472980 79.223 72.0982
18.606844 79.283 71.9891
18.741676 79.343 71.8786
18.877487 79.403 71.7671
19.014280 79.463 71.6551
19.152065 79.523 71.5421
19.290850 79.583 71.4275
19.430639 79.643 71.3121
19.571442 79.703 71.1964
19.713264 79.763 71.0801
19.856115 79.823 70.9633
20.000000 79.883 70.8451
20.144928 79.944 70.7252
20.290907 80.005 70.6031
20.437943 80.066 70.4790
20.586044 80.128 70.3501
20.735220 80.191 70.2138
20.885475 80.254 70.0702
21.036821 80.315 69.9167
21.189262 80.374 69.7592
21.342808 80.432 69.6028
21.497467 80.488 69.4472
21.653246 80.544 69.2923
21.810154 80.598 69.1432
21.968201 80.650 69.0047
22.127390 80.702 68.8771
22.287735 80.755 68.7650
22.449242 80.811 68.6601
22.611917 80.870 68.5571
22.775772 80.932 68.4521
22.940815 80.995 68.3406
23.107054 81.060 68.2192
23.274498 81.128 68.0834
23.443153 81.196 67.9322
23.613033 81.263 67.7623
23.784142 81.329 67.5762
23.956491 81.395 67.3731
24.130091 81.458 67.1592
24.304947 81.517 66.9396
24.481071 81.573 66.7163
24.658470 81.629 66.4931
24.837156 81.683 66.2703
25.017136 81.734 66.0481
25.198421 81.783 65.8312
25.381020 81.831 65.6247
25.564941 81.877 65.4272
25.750195 81.923 65.2386
25.936790 81.968 65.0602
26.124741 82.012 64.8938
26.314051 82.057 64.7382
26.504732 82.103 64.5934
26.696796 82.150 64.4572
26.890253 82.198 64.3272
27.085112 82.248 64.2031
27.281382 82.299 64.0862
27.479073 82.353 63.9692
27.678198 82.410 63.8462
27.878765 82.470 63.7142
28.080786 82.530 63.5668
28.284271 82.591 63.4072
28.489231 82.651 63.2365
28.695675 82.711 63.0543
28.903616 82.771 62.8607
29.113064 82.830 62.6553
29.324028 82.888 62.4358
29.536524 82.944 62.2083
29.750557 82.995 61.9753
29.966141 83.044 61.7452
30.183289 83.089 61.5286
30.402010 83.134 61.3222
30.622314 83.180 61.1272
30.844217 83.226 60.9412
31.067726 83.272 60.7627
31.292856 83.318 60.5913
31.519617 83.366 60.4279
31.748020 83.416 60.2672
31.978081 83.468 60.1048
32.209808 83.521 59.9382
32.443211 83.575 59.7650
32.678310 83.631 59.5812
32.915108 83.688 59.3803
33.153625 83.745 59.1673
33.393871 83.798 58.9421
33.635857 83.848 58.7133
33.879597 83.896 58.4908
34.125103 83.943 58.2713
34.372387 83.991 58.0544
34.621464 84.039 57.8413
34.872345 84.085 57.6343
35.125042 84.132 57.4302
35.379574 84.182 57.2280
35.635948 84.232 57.0242
35.894180 84.282 56.8153
36.154285 84.332 56.6013
36.416275 84.383 56.3820
36.680161 84.434 56.1554
36.945961 84.485 55.9180
37.213688 84.536 55.6744
37.483353 84.583 55.4282
37.754974 84.630 55.1784
38.028561 84.678 54.9261
38.304131 84.726 54.6683
38.581699 84.772 54.4001
38.861279 84.816 54.1284
39.142883 84.857 53.8585
39.426529 84.896 53.5904
39.712231 84.935 53.3251
40.000000 84.972 53.0654
40.289856 85.006 52.8130
40.581814 85.038 52.5723
40.875885 85.070 52.3493
41.172089 85.102 52.1413
41.470440 85.135 51.9497
41.770950 85.171 51.7683
42.073643 85.210 51.5928
42.378525 85.252 51.4182
42.685616 85.296 51.2389
42.994934 85.341 51.0533
43.306492 85.388 50.8582
43.620308 85.436 50.6533
43.936401 85.485 50.4374
44.254780 85.534 50.2094
44.575470 85.584 49.9676
44.898483 85.633 49.7124
45.223835 85.681 49.4425
45.551544 85.727 49.1614
45.881630 85.772 48.8725
46.214108 85.815 48.5755
46.548996 85.857 48.2698
46.886307 85.896 47.9595
47.226067 85.932 47.6467
47.568283 85.965 47.3365
47.912983 85.996 47.0351
48.260181 86.025 46.7415
48.609894 86.053 46.4553
48.962143 86.080 46.1804
49.316940 86.104 45.9214
49.674313 86.129 45.6754
50.034271 86.157 45.4431
50.396843 86.186 45.2183
50.762039 86.216 44.9954
51.129883 86.248 44.7734
51.500389 86.281 44.5508
51.873581 86.316 44.3234
52.249481 86.352 44.0857
52.628101 86.388 43.8394
53.009464 86.423 43.5843
53.393593 86.458 43.3214
53.780506 86.492 43.0514
54.170223 86.525 42.7755
54.562763 86.556 42.4935
54.958145 86.586 42.2104
55.356396 86.613 41.9313
55.757530 86.638 41.6564
56.161572 86.663 41.3877
56.568542 86.688 41.1254
56.978462 86.711 40.8696
57.391350 86.734 40.6224
57.807232 86.757 40.3881
58.226128 86.781 40.1614
58.648056 86.808 39.9392
59.073048 86.836 39.7194
59.501114 86.865 39.4999
59.932281 86.895 39.2774
60.366577 86.928 39.0490
60.804020 86.964 38.8104
61.244629 87.001 38.5565
61.688435 87.038 38.2865
62.135452 87.075 37.9980
62.585712 87.112 37.6905
63.039234 87.148 37.3611
63.496040 87.181 37.0146
63.956161 87.211 36.6532
64.419617 87.237 36.2827
64.886421 87.259 35.9087
65.356621 87.278 35.5336
65.830215 87.294 35.1615
66.307251 87.308 34.7937
66.787743 87.319 34.4343
67.271713 87.328 34.0797
67.759193 87.339 33.7283
68.250206 87.348 33.3776
68.744774 87.354 33.0252
69.242928 87.359 32.6687
69.744690 87.364 32.3041
70.250084 87.366 31.9347
70.759148 87.361 31.5588
71.271896 87.351 31.1877
71.788361 87.335 30.8303
72.308571 87.313 30.4926
72.832550 87.286 30.1801
73.360321 87.254 29.9035
73.891922 87.214 29.6739
74.427376 87.171 29.4963
74.966705 87.129 29.3820
75.509949 87.088 29.3231
76.057121 87.051 29.3159
76.608261 87.017 29.3579
77.163399 86.987 29.4475
77.722557 86.964 29.5777
78.285767 86.950 29.7454
78.853058 86.946 29.9366
79.424461 86.952 30.1400
80.000000 86.967 30.3446
80.579712 86.993 30.5385
81.163628 87.027 30.7137
81.751770 87.069 30.8601
82.344177 87.117 30.9728
82.940880 87.171 31.0435
83.541901 87.228 31.0720
84.147285 87.286 31.0548
84.757050 87.345 30.9942
85.371231 87.404 30.8888
85.989868 87.461 30.7463
86.612984 87.514 30.5709
87.240616 87.563 30.3714
87.872803 87.607 30.1583
88.509560 87.649 29.9315
89.150940 87.690 29.6942
89.796967 87.729 29.4475
90.447670 87.763 29.1917
91.103088 87.795 28.9316
91.763260 87.824 28.6722
92.428215 87.851 28.4135
93.097992 87.877 28.1571
93.772614 87.901 27.9035
94.452133 87.923 27.6530
95.136566 87.944 27.4075
95.825966 87.964 27.1695
96.520363 87.983 26.9375
97.219788 88.003 26.7114
97.924286 88.023 26.4895
98.633881 88.044 26.2716
99.348625 88.066 26.0525
100.068542 88.090 25.8281
100.793686 88.115 25.5946
101.524078 88.140 25.3456
102.259766 88.165 25.0837
103.000778 88.188 24.8084
103.747162 88.209 24.5226
104.498962 88.228 24.2280
105.256203 88.244 23.9276
106.018929 88.257 23.6228
106.787186 88.267 23.3196
107.561012 88.273 23.0234
108.340446 88.276 22.7365
109.125526 88.279 22.4635
109.916290 88.280 22.2025
110.712791 88.280 21.9530
111.515060 88.280 21.7145
112.323143 88.280 21.4865
113.137085 88.280 21.2675
113.956924 88.280 21.0552
114.782700 88.280 20.8505
115.614464 88.280 20.6533
116.452255 88.280 20.4634
117.296112 88.281 20.2805
118.146095 88.282 20.1044
119.002228 88.283 19.9354
119.864563 88.286 19.7704
120.733154 88.291 19.6075
121.608040 88.297 19.4434
122.489258 88.304 19.2743
123.376869 88.312 19.1004
124.270905 88.320 18.9206
125.171425 88.328 18.7353
126.078468 88.336 18.5445
126.992081 88.343 18.3484
127.912323 88.349 18.1460
128.839233 88.354 17.9414
129.772842 88.357 17.7382
130.713242 88.358 17.5374
131.660431 88.359 17.3419
132.614502 88.360 17.1505
133.575485 88.360 16.9629
134.543427 88.360 16.7793
135.518387 88.360 16.6002
136.500412 88.360 16.4243
137.489548 88.360 16.2508
138.485855 88.360 16.0794
139.489380 88.360 15.9100
140.500168 88.360 15.7424
141.518295 88.360 15.5761
142.543793 88.360 15.4114
143.576721 88.360 15.2483
144.617142 88.360 15.0864
145.665100 88.360 14.9250
146.720642 88.360 14.7644
147.783844 88.360 14.6046
148.854752 88.360 14.4454
149.933411 88.360 14.2872
151.019897 88.360 14.1294
152.114243 88.360 13.9714
153.216522 88.360 13.8134
154.326797 88.360 13.6560
155.445114 88.360 13.4984
156.571533 88.360 13.3397
157.706116 88.360 13.1804
158.848923 88.360 13.0206
160.000000 88.360 12.8594
161.159424 88.360 12.6961
162.327255 88.360 12.5304
163.503540 88.360 12.3617
164.688354 88.360 12.1894
165.881760 88.359 12.0127
167.083801 88.358 11.8315
168.294571 88.357 11.6444
169.514099 88.354 11.4535
170.742462 88.349 11.2593
171.979736 88.342 11.0645
173.225967 88.334 10.8721
174.481232 88.324 10.6824
175.745605 88.313 10.4959
177.019119 88.300 10.3154
178.301880 88.284 10.1435
179.593933 88.267 9.9824
180.895340 88.250 9.8355
182.206177 88.232 9.7013
183.526520 88.214 9.5803
184.856430 88.197 9.4702
186.195984 88.181 9.3696
187.545227 88.166 9.2762
188.904266 88.152 9.1880
190.273132 88.139 9.1032
191.651932 88.128 9.0197
193.040726 88.117 8.9362
194.439575 88.107 8.8511
195.848572 88.097 8.7642
197.267761 88.087 8.6749
198.697250 88.077 8.5832
200.137085 88.067 8.4886
201.587372 88.057 8.3932
203.048157 88.045 8.2986
204.519531 88.032 8.2063
206.001556 88.019 8.1192
207.494324 88.006 8.0352
208.997925 87.993 7.9528
210.512405 87.979 7.8732
212.037857 87.965 7.7971
213.574371 87.950 7.7252
215.122025 87.935 7.6591
216.680893 87.920 7.5962
218.251053 87.906 7.5331
219.832581 87.891 7.4732
221.425583 87.874 7.4171
223.030121 87.855 7.3701
224.646286 87.836 7.3385
226.274170 87.817 7.3190
227.913849 87.800 7.3106
229.565399 87.783 7.3130
231.228928 87.767 7.3258
232.904510 87.752 7.3479
234.592224 87.740 7.3811
236.292191 87.730 7.4169
238.004456 87.725 7.4477
239.729126 87.721 7.4719
241.466309 87.718 7.4852
243.216080 87.715 7.4890
244.978516 87.713 7.4822
246.753738 87.711 7.4680
248.541809 87.706 7.4480
250.342850 87.700 7.4271
252.156937 87.693 7.4110
253.984161 87.685 7.3990
255.824646 87.677 7.3923
257.678467 87.669 7.3910
259.545685 87.661 7.3958
261.426483 87.654 7.4060
263.320862 87.648 7.4225
265.229004 87.643 7.4409
267.150970 87.640 7.4579
269.086853 87.639 7.4720
271.036774 87.638 7.4806
273.000824 87.637 7.4840
274.979095 87.637 7.4814
276.971710 87.637 7.4730
278.978760 87.636 7.4585
281.000336 87.635 7.4391
283.036591 87.633 7.4148
285.087585 87.630 7.3881
287.153442 87.626 7.3602
289.234283 87.620 7.3351
291.330200 87.612 7.3172
293.441284 87.604 7.3060
295.567688 87.596 7.3024
297.709503 87.589 7.3060
299.866821 87.581 7.3166
302.039795 87.574 7.3339
304.228485 87.568 7.3592
306.433044 87.563 7.3879
308.653595 87.560 7.4161
310.890228 87.558 7.4429
313.143066 87.557 7.4661
315.412231 87.556 7.4859
317.697845 87.556 7.5016
320.000000 87.556 7.5140
322.318848 87.556 7.5233
324.654510 87.556 7.5300
327.007080 87.556 7.5347
329.376709 87.556 7.5370
331.763519 87.556 7.5364
334.167603 87.556 7.5330
336.589142 87.556 7.5267
339.028198 87.556 7.5170
341.484924 87.555 7.5032
343.959473 87.554 7.4861
346.451935 87.553 7.4653
348.962463 87.550 7.4431
351.491211 87.545 7.4201
354.038239 87.539 7.4001
356.603760 87.532 7.3876
359.187866 87.524 7.3810
361.790680 87.516 7.3802
364.412354 87.508 7.3850
367.053040 87.500 7.3955
369.712860 87.492 7.4109
372.391968 87.484 7.4316
375.090454 87.477 7.4549
377.808533 87.471 7.4779
380.546265 87.464 7.5029
383.303864 87.457 7.5308
386.081451 87.449 7.5629
388.879150 87.441 7.6006
391.697144 87.433 7.6439
394.535522 87.425 7.6928
397.394501 87.418 7.7478
400.274170 87.411 7.8106
403.174744 87.405 7.8778
406.096313 87.401 7.9470
409.039062 87.399 8.0168
412.003113 87.397 8.0847
414.988647 87.396 8.1508
417.995850 87.395 8.2141
421.024811 87.395 8.2748
424.075714 87.395 8.3328
427.148743 87.395 8.3888
430.244049 87.395 8.4438
433.361786 87.395 8.4978
436.502106 87.395 8.5510
439.665161 87.395 8.6038
442.851166 87.395 8.6569
446.060242 87.395 8.7098
449.292572 87.395 8.7623
452.548340 87.395 8.8148
455.827698 87.395 8.8681
459.130798 87.395 8.9218
462.457855 87.395 8.9756
465.809021 87.395 9.0298
469.184448 87.395 9.0845
472.584381 87.395 9.1398
476.008911 87.395 9.1964
479.458252 87.395 9.2538
482.932617 87.395 9.3114
486.432159 87.395 9.3698
489.957031 87.395 9.4294
493.507477 87.395 9.4898
497.083618 87.395 9.5507
500.685699 87.395 9.6128
504.313873 87.395 9.6766
507.968323 87.395 9.7418
511.649292 87.395 9.8081
515.356934 87.395 9.8758
519.091370 87.395 9.9450
522.852966 87.395 10.0158
526.641724 87.395 10.0879
530.458008 87.395 10.1618
534.301941 87.395 10.2377
538.173706 87.395 10.3157
542.073547 87.395 10.3960
546.001648 87.395 10.4787
549.958191 87.395 10.5642
553.943420 87.395 10.6527
557.957520 87.395 10.7442
562.000671 87.395 10.8397
566.073181 87.395 10.9400
570.175171 87.395 11.0456
574.306885 87.396 11.1572
578.468567 87.397 11.2746
582.660400 87.399 11.3981
586.882568 87.402 11.5265
591.135376 87.407 11.6598
595.419006 87.413 11.7945
599.733643 87.421 11.9269
604.079590 87.430 12.0575
608.456970 87.439 12.1865
612.866089 87.450 12.3126
617.307190 87.462 12.4355
621.780457 87.476 12.5526
626.286133 87.490 12.6592
630.824463 87.504 12.7607
635.395691 87.516 12.8610
640.000000 87.528 12.9597
644.637695 87.542 13.0587
649.309021 87.557 13.1547
654.014160 87.572 13.2432
658.753418 87.586 13.3287
663.527039 87.600 13.4150
668.335205 87.614 13.4997
673.178284 87.629 13.5822
678.056396 87.645 13.6607
682.969849 87.660 13.7327
687.918945 87.676 13.8008
692.903870 87.691 13.8678
697.924927 87.707 13.9308
702.982422 87.723 13.9871
708.076477 87.739 14.0388
713.207520 87.753 14.0871
718.375732 87.767 14.1318
723.581360 87.782 14.1740
728.824707 87.797 14.2109
734.106079 87.811 14.2390
739.425720 87.824 14.2619
744.783936 87.835 14.2820
750.180908 87.844 14.2999
755.617065 87.853 14.3177
761.092529 87.861 14.3339
766.607727 87.867 14.3469
772.162903 87.872 14.3600
777.758301 87.874 14.3758
783.394287 87.874 14.3949
789.071045 87.873 14.4180
794.789001 87.870 14.4479
800.548340 87.863 14.4859
806.349487 87.854 14.5378
812.192627 87.842 14.6087
818.078125 87.828 14.7016
824.006226 87.813 14.8209
829.977295 87.798 14.9674
835.991699 87.782 15.1433
842.049622 87.767 15.3492
848.151428 87.754 15.5878
854.297485 87.743 15.8550
860.488098 87.737 16.1494
866.723572 87.735 16.4648
873.004211 87.739 16.7968
879.330322 87.748 17.1378
885.702332 87.764 17.4796
892.120483 87.786 17.8188
898.585144 87.811 18.1501
905.096680 87.841 18.4708
911.655396 87.875 18.7778
918.261597 87.913 19.0680
924.915710 87.953 19.3364
931.618042 87.994 19.5861
938.368896 88.035 19.8169
945.168762 88.077 20.0332
952.017822 88.118 20.2386
958.916504 88.159 20.4353
965.865234 88.201 20.6264
972.864319 88.243 20.8123
979.914062 88.285 20.9941
987.014954 88.327 21.1723
994.167236 88.370 21.3489
1001.371399 88.415 21.5204
1008.627747 88.462 21.6842
1015.936646 88.511 21.8394
1023.298584 88.560 21.9830
1030.713867 88.609 22.1186
1038.182739 88.657 22.2491
1045.705933 88.706 22.3725
