* Measurement data measured by REW V5.20.13
* Source: C:\Users\kurin\Desktop\Targets and Curves\Resolve\Img\Files\He6.txt
* Format: Comma/Tab/Space delimited data
* Dated: Aug 14, 2023 4:58:23 PM
* REW Settings:
*  C-weighting compensation: Off
*  Target level: 75.0 dB
* Note: ; Measurement imported from C:\Users\kurin\Desktop\Targets and Curves\Resolve\Img\Files\He6.txt Format: Comma/Tab/Space delimited data 623 values loaded, 5 Hz to 39,792 Hz log spaced 
* Measurement: He6
* Smoothing: 1/48 octave
* Frequency Step: 1/96 octave
* Start Frequency: 5.000 Hz
*
* Freq(Hz) SPL(dB) Phase(degrees)
5.000000 80.699 53.1930
5.036232 80.717 53.1751
5.072727 80.737 53.1560
5.109486 80.760 53.1340
5.146511 80.786 53.1090
5.183805 80.818 53.0796
5.221369 80.852 53.0480
5.259205 80.887 53.0166
5.297316 80.924 52.9840
5.335702 80.963 52.9489
5.374367 81.004 52.9130
5.413311 81.044 52.8775
5.452538 81.085 52.8420
5.492050 81.125 52.8066
5.531847 81.165 52.7710
5.571934 81.205 52.7351
5.612310 81.245 52.6990
5.652979 81.285 52.6626
5.693943 81.325 52.6260
5.735204 81.365 52.5896
5.776763 81.406 52.5530
5.818624 81.446 52.5157
5.860788 81.486 52.4780
5.903258 81.526 52.4401
5.946035 81.566 52.4020
5.989123 81.606 52.3636
6.032523 81.646 52.3250
6.076237 81.686 52.2861
6.120268 81.727 52.2470
6.164618 81.767 52.2076
6.209289 81.807 52.1680
6.254284 81.847 52.1282
6.299605 81.887 52.0880
6.345255 81.927 52.0471
6.391235 81.967 52.0060
6.437549 82.007 51.9651
6.484198 82.048 51.9240
6.531185 82.088 51.8822
6.578513 82.128 51.8400
6.626183 82.168 51.7976
6.674199 82.208 51.7550
6.722563 82.248 51.7121
6.771278 82.289 51.6690
6.820345 82.329 51.6257
6.869768 82.369 51.5820
6.919549 82.409 51.5377
6.969691 82.449 51.4930
7.020196 82.489 51.4481
7.071068 82.529 51.4030
7.122308 82.569 51.3577
7.173919 82.610 51.3120
7.225904 82.650 51.2657
7.278266 82.690 51.2190
7.331007 82.730 51.1721
7.384131 82.770 51.1250
7.437639 82.810 51.0777
7.491535 82.850 51.0300
7.545822 82.890 50.9817
7.600502 82.931 50.9330
7.655579 82.971 50.8841
7.711054 83.011 50.8350
7.766932 83.051 50.7858
7.823214 83.091 50.7360
7.879904 83.131 50.6852
7.937005 83.171 50.6340
7.994520 83.211 50.5831
8.052452 83.252 50.5320
8.110803 83.292 50.4803
8.169578 83.332 50.4280
8.228777 83.372 50.3752
8.288406 83.412 50.3220
8.348468 83.452 50.2687
8.408964 83.492 50.2150
8.469899 83.532 50.1608
8.531276 83.573 50.1060
8.593097 83.613 50.0507
8.655366 83.653 49.9950
8.718086 83.693 49.9392
8.781260 83.733 49.8830
8.844893 83.773 49.8263
8.908987 83.813 49.7690
8.973545 83.853 49.7113
9.038571 83.894 49.6530
9.104069 83.934 49.5942
9.170040 83.974 49.5350
9.236490 84.014 49.4757
9.303422 84.054 49.4160
9.370838 84.094 49.3558
9.438744 84.134 49.2950
9.507140 84.174 49.2338
9.576033 84.215 49.1720
9.645425 84.255 49.1098
9.715320 84.295 49.0470
9.785721 84.335 48.9837
9.856632 84.375 48.9200
9.928058 84.415 48.8563
10.000000 84.455 48.7920
10.072464 84.495 48.7269
10.145453 84.536 48.6611
10.218971 84.576 48.5948
10.293022 84.616 48.5280
10.367610 84.656 48.4608
10.442738 84.696 48.3930
10.518411 84.736 48.3248
10.594631 84.776 48.2560
10.671404 84.816 48.1868
10.748734 84.857 48.1170
10.826623 84.897 48.0468
10.905077 84.937 47.9761
10.984100 84.977 47.9049
11.063695 85.017 47.8330
11.143867 85.057 47.7603
11.224621 85.098 47.6870
11.305959 85.138 47.6134
11.387886 85.178 47.5391
11.470407 85.218 47.4638
11.553527 85.258 47.3880
11.637249 85.298 47.3124
11.721577 85.338 47.2361
11.806517 85.378 47.1584
11.892071 85.419 47.0801
11.978246 85.459 47.0018
12.065045 85.499 46.9230
12.152473 85.539 46.8434
12.240536 85.579 46.7630
12.329235 85.619 46.6819
12.418578 85.659 46.6001
12.508568 85.699 46.5179
12.599211 85.740 46.4350
12.690510 85.780 46.3514
12.782471 85.820 46.2671
12.875097 85.860 46.1820
12.968395 85.900 46.0961
13.062370 85.940 46.0094
13.157025 85.980 45.9220
13.252366 86.020 45.8344
13.348398 86.061 45.7461
13.445127 86.101 45.6570
13.542556 86.141 45.5671
13.640691 86.181 45.4764
13.739536 86.221 45.3850
13.839099 86.261 45.2934
13.939383 86.301 45.2011
14.040393 86.341 45.1075
14.142136 86.382 45.0130
14.244616 86.422 44.9179
14.347837 86.462 44.8220
14.451808 86.502 44.7253
14.556532 86.542 44.6280
14.662014 86.582 44.5305
14.768262 86.622 44.4321
14.875278 86.662 44.3326
14.983070 86.703 44.2321
15.091644 86.743 44.1305
15.201005 86.783 44.0281
15.311157 86.823 43.9254
15.422109 86.863 43.8221
15.533863 86.903 43.7180
15.646428 86.943 43.6131
15.759809 86.983 43.5070
15.874010 87.024 43.4001
15.989040 87.064 43.2924
16.104904 87.104 43.1841
16.221605 87.144 43.0754
16.339155 87.184 42.9661
16.457554 87.224 42.8560
16.576813 87.264 42.7451
16.696936 87.304 42.6334
16.817928 87.345 42.5211
16.939798 87.385 42.4084
17.062551 87.425 42.2951
17.186193 87.465 42.1813
17.310732 87.505 42.0671
17.436172 87.545 41.9526
17.562521 87.585 41.8381
17.689787 87.625 41.7236
17.817974 87.666 41.6091
17.947090 87.706 41.4943
18.077143 87.746 41.3801
18.208138 87.786 41.2669
18.340080 87.826 41.1551
18.472980 87.866 41.0448
18.606844 87.906 40.9371
18.741676 87.946 40.8326
18.877487 87.987 40.7331
19.014280 88.028 40.6405
19.152065 88.069 40.5551
19.290850 88.111 40.4789
19.430639 88.156 40.4090
19.571442 88.204 40.3454
19.713264 88.257 40.2811
19.856115 88.314 40.2122
20.000000 88.376 40.1291
20.144928 88.443 40.0229
20.290907 88.514 39.8871
20.437943 88.587 39.7123
20.586044 88.660 39.4992
20.735220 88.732 39.2434
20.885475 88.802 38.9504
21.036821 88.867 38.6197
21.189262 88.926 38.2645
21.342808 88.978 37.8937
21.497467 89.023 37.5185
21.653246 89.062 37.1530
21.810154 89.098 36.7965
21.968201 89.133 36.4537
22.127390 89.166 36.1224
22.287735 89.198 35.8032
22.449242 89.229 35.4922
22.611917 89.261 35.1868
22.775772 89.294 34.8834
22.940815 89.326 34.5782
23.107054 89.358 34.2694
23.274498 89.391 33.9544
23.443153 89.423 33.6325
23.613033 89.452 33.2992
23.784142 89.479 32.9633
23.956491 89.502 32.6316
24.130091 89.522 32.3054
24.304947 89.542 31.9881
24.481071 89.560 31.6794
24.658470 89.576 31.3793
24.837156 89.591 31.0894
25.017136 89.606 30.8126
25.198421 89.621 30.5443
25.381020 89.638 30.2804
25.564941 89.656 30.0212
25.750195 89.672 29.7660
25.936790 89.689 29.5133
26.124741 89.707 29.2625
26.314051 89.725 29.0114
26.504732 89.744 28.7568
26.696796 89.762 28.5003
26.890253 89.779 28.2424
27.085112 89.796 27.9833
27.281382 89.813 27.7236
27.479073 89.830 27.4624
27.678198 89.846 27.1986
27.878765 89.861 26.9334
28.080786 89.876 26.6664
28.284271 89.889 26.4004
28.489231 89.900 26.1365
28.695675 89.909 25.8783
28.903616 89.918 25.6307
29.113064 89.927 25.3903
29.324028 89.936 25.1557
29.536524 89.946 24.9263
29.750557 89.956 24.7019
29.966141 89.966 24.4792
30.183289 89.979 24.2563
30.402010 89.992 24.0293
30.622314 90.005 23.7925
30.844217 90.018 23.5503
31.067726 90.029 23.3048
31.292856 90.038 23.0574
31.519617 90.047 22.8097
31.748020 90.055 22.5623
31.978081 90.061 22.3152
32.209808 90.066 22.0723
32.443211 90.068 21.8372
32.678310 90.070 21.6103
32.915108 90.072 21.3936
33.153625 90.074 21.1862
33.393871 90.076 20.9888
33.635857 90.079 20.7983
33.879597 90.083 20.6133
34.125103 90.089 20.4293
34.372387 90.097 20.2411
34.621464 90.105 20.0493
34.872345 90.113 19.8526
35.125042 90.120 19.6512
35.379574 90.128 19.4450
35.635948 90.135 19.2343
35.894180 90.141 19.0180
36.154285 90.146 18.8003
36.416275 90.149 18.5843
36.680161 90.151 18.3713
36.945961 90.152 18.1640
37.213688 90.152 17.9613
37.483353 90.152 17.7631
37.754974 90.152 17.5693
38.028561 90.152 17.3800
38.304131 90.152 17.1942
38.581699 90.152 17.0110
38.861279 90.152 16.8303
39.142883 90.152 16.6518
39.426529 90.152 16.4752
39.712231 90.152 16.3005
40.000000 90.152 16.1273
40.289856 90.152 15.9553
40.581814 90.152 15.7842
40.875885 90.152 15.6138
41.172089 90.152 15.4433
41.470440 90.152 15.2717
41.770950 90.152 15.0993
42.073643 90.152 14.9258
42.378525 90.151 14.7512
42.685616 90.149 14.5749
42.994934 90.146 14.3992
43.306492 90.141 14.2256
43.620308 90.135 14.0573
43.936401 90.128 13.8984
44.254780 90.120 13.7482
44.575470 90.113 13.6076
44.898483 90.105 13.4762
45.223835 90.097 13.3543
45.551544 90.089 13.2412
45.881630 90.083 13.1375
46.214108 90.079 13.0392
46.548996 90.076 12.9423
46.886307 90.074 12.8462
47.226067 90.073 12.7483
47.568283 90.072 12.6492
47.912983 90.072 12.5482
48.260181 90.072 12.4462
48.609894 90.072 12.3430
48.962143 90.072 12.2402
49.316940 90.072 12.1389
49.674313 90.072 12.0392
50.034271 90.072 11.9410
50.396843 90.073 11.8451
50.762039 90.074 11.7527
51.129883 90.075 11.6622
51.500389 90.078 11.5732
51.873581 90.082 11.4832
52.249481 90.087 11.3903
52.628101 90.094 11.2922
53.009464 90.101 11.1856
53.393593 90.109 11.0712
53.780506 90.117 10.9488
54.170223 90.125 10.8182
54.562763 90.132 10.6787
54.958145 90.139 10.5322
55.356396 90.144 10.3794
55.757530 90.148 10.2232
56.161572 90.150 10.0672
56.568542 90.151 9.9113
56.978462 90.152 9.7568
57.391350 90.152 9.6033
57.807232 90.152 9.4513
58.226128 90.152 9.2993
58.648056 90.152 9.1465
59.073048 90.152 8.9913
59.501114 90.152 8.8316
59.932281 90.152 8.6673
60.366577 90.151 8.4974
60.804020 90.149 8.3223
61.244629 90.146 8.1408
61.688435 90.140 7.9573
62.135452 90.130 7.7740
62.585712 90.118 7.5973
63.039234 90.104 7.4348
63.496040 90.088 7.2852
63.956161 90.073 7.1505
64.419617 90.057 7.0282
64.886421 90.042 6.9169
65.356621 90.027 6.8152
65.830215 90.013 6.7238
66.307251 90.001 6.6352
66.787743 89.992 6.5412
67.271713 89.983 6.4442
67.759193 89.971 6.3408
68.250206 89.958 6.2402
68.744774 89.943 6.1510
69.242928 89.927 6.0711
69.744690 89.913 6.0010
70.250084 89.899 5.9411
70.759148 89.884 5.8938
71.271896 89.870 5.8541
71.788361 89.861 5.8210
72.308571 89.855 5.7851
72.832550 89.851 5.7356
73.360321 89.848 5.6751
73.891922 89.844 5.6014
74.427376 89.838 5.5182
74.966705 89.831 5.4259
75.509949 89.822 5.3322
76.057121 89.807 5.2427
76.608261 89.790 5.1641
77.163399 89.772 5.1065
77.722557 89.753 5.0661
78.285767 89.736 5.0434
78.853058 89.720 5.0360
79.424461 89.705 5.0435
80.000000 89.692 5.0600
80.579712 89.685 5.0811
81.163628 89.680 5.1010
81.751770 89.677 5.1129
82.344177 89.676 5.1150
82.940880 89.677 5.1030
83.541901 89.679 5.0781
84.147285 89.679 5.0374
84.757050 89.678 4.9881
85.371231 89.673 4.9351
85.989868 89.667 4.8821
86.612984 89.660 4.8343
87.240616 89.652 4.7921
87.872803 89.642 4.7565
88.509560 89.632 4.7300
89.150940 89.621 4.7166
89.796967 89.611 4.7130
90.447670 89.604 4.7194
91.103088 89.599 4.7300
91.763260 89.595 4.7390
92.428215 89.592 4.7460
93.097992 89.591 4.7487
93.772614 89.591 4.7470
94.452133 89.591 4.7398
95.136566 89.591 4.7280
95.825966 89.591 4.7122
96.520363 89.591 4.6930
97.219788 89.591 4.6714
97.924286 89.591 4.6471
98.633881 89.591 4.6200
99.348625 89.591 4.5901
100.068542 89.591 4.5573
100.793686 89.591 4.5211
101.524078 89.591 4.4810
102.259766 89.590 4.4371
103.000778 89.589 4.3890
103.747162 89.588 4.3371
104.498962 89.586 4.2810
105.256203 89.583 4.2231
106.018929 89.578 4.1645
106.787186 89.571 4.1081
107.561012 89.563 4.0571
108.340446 89.555 4.0111
109.125526 89.546 3.9704
109.916290 89.536 3.9361
110.712791 89.526 3.9087
111.515060 89.515 3.8890
112.323143 89.504 3.8789
113.137085 89.494 3.8760
113.956924 89.485 3.8788
114.782700 89.476 3.8870
115.614464 89.467 3.8997
116.452255 89.459 3.9170
117.296112 89.453 3.9390
118.146095 89.447 3.9639
119.002228 89.442 3.9906
119.864563 89.437 4.0179
120.733154 89.434 4.0451
121.608040 89.432 4.0709
122.489258 89.431 4.0944
123.376869 89.431 4.1150
124.270905 89.430 4.1314
125.171425 89.430 4.1450
126.078468 89.430 4.1565
126.992081 89.430 4.1660
127.912323 89.430 4.1732
128.839233 89.430 4.1790
129.772842 89.430 4.1841
130.713242 89.430 4.1880
131.660431 89.430 4.1904
132.614502 89.430 4.1920
133.575485 89.430 4.1933
134.543427 89.430 4.1940
135.518387 89.430 4.1938
136.500412 89.430 4.1930
137.489548 89.430 4.1918
138.485855 89.430 4.1900
139.489380 89.430 4.1877
140.500168 89.430 4.1850
141.518295 89.430 4.1823
142.543793 89.430 4.1790
143.576721 89.430 4.1748
144.617142 89.430 4.1700
145.665100 89.430 4.1652
146.720642 89.430 4.1600
147.783844 89.430 4.1543
148.854752 89.430 4.1480
149.933411 89.430 4.1413
151.019897 89.430 4.1340
152.114243 89.430 4.1265
153.216522 89.430 4.1180
154.326797 89.430 4.1082
155.445114 89.430 4.0970
156.571533 89.430 4.0845
157.706116 89.430 4.0700
158.848923 89.430 4.0531
160.000000 89.429 4.0340
161.159424 89.428 4.0126
162.327255 89.427 3.9901
163.503540 89.424 3.9663
164.688354 89.420 3.9450
165.881760 89.414 3.9295
167.083801 89.407 3.9210
168.294571 89.400 3.9224
169.514099 89.394 3.9330
170.742462 89.388 3.9541
171.979736 89.383 3.9819
173.225967 89.381 4.0151
174.481232 89.380 4.0479
175.745605 89.382 4.0747
177.019119 89.385 4.0940
178.301880 89.389 4.1016
179.593933 89.393 4.1000
180.895340 89.395 4.0888
182.206177 89.396 4.0730
183.526520 89.395 4.0560
184.856430 89.392 4.0420
186.195984 89.388 4.0361
187.545227 89.383 4.0390
188.904266 89.378 4.0544
190.273132 89.374 4.0779
191.651932 89.373 4.1088
193.040726 89.375 4.1399
194.439575 89.380 4.1647
195.848572 89.386 4.1810
197.267761 89.392 4.1843
198.697250 89.399 4.1750
200.137085 89.407 4.1519
201.587372 89.414 4.1161
203.048157 89.419 4.0673
204.519531 89.423 4.0092
206.001556 89.424 3.9446
207.494324 89.423 3.8762
208.997925 89.420 3.8070
210.512405 89.416 3.7382
212.037857 89.410 3.6711
213.574371 89.403 3.6071
215.122025 89.394 3.5480
216.680893 89.383 3.4941
218.251053 89.372 3.4461
219.832581 89.359 3.4051
221.425583 89.345 3.3728
223.030121 89.331 3.3481
224.646286 89.317 3.3306
226.274170 89.302 3.3200
227.913849 89.288 3.3161
229.565399 89.273 3.3180
231.228928 89.259 3.3249
232.904510 89.244 3.3370
234.592224 89.229 3.3541
236.292191 89.214 3.3759
238.004456 89.199 3.4018
239.729126 89.185 3.4319
241.466309 89.171 3.4663
243.216080 89.156 3.5049
244.978516 89.141 3.5473
246.753738 89.126 3.5939
248.541809 89.111 3.6448
250.342850 89.097 3.6998
252.156937 89.083 3.7588
253.984161 89.068 3.8218
255.824646 89.054 3.8892
257.678467 89.039 3.9608
259.545685 89.024 4.0366
261.426483 89.009 4.1168
263.320862 88.994 4.2019
265.229004 88.980 4.2917
267.150970 88.966 4.3861
269.086853 88.951 4.4857
271.036774 88.936 4.5913
273.000824 88.921 4.7027
274.979095 88.906 4.8194
276.971710 88.892 4.9426
278.978760 88.878 5.0726
281.000336 88.863 5.2106
283.036591 88.849 5.3576
285.087585 88.834 5.5145
287.153442 88.819 5.6821
289.234283 88.805 5.8615
291.330200 88.792 6.0545
293.441284 88.780 6.2604
295.567688 88.770 6.4808
297.709503 88.763 6.7114
299.866821 88.759 6.9497
302.039795 88.757 7.1923
304.228485 88.759 7.4355
306.433044 88.763 7.6773
308.653595 88.770 7.9154
310.890228 88.779 8.1474
313.143066 88.790 8.3696
315.412231 88.803 8.5834
317.697845 88.816 8.7881
320.000000 88.830 8.9864
322.318848 88.844 9.1808
324.654510 88.858 9.3714
327.007080 88.873 9.5590
329.376709 88.889 9.7444
331.763519 88.905 9.9291
334.167603 88.922 10.1124
336.589142 88.940 10.2949
339.028198 88.959 10.4745
341.484924 88.980 10.6497
343.959473 89.002 10.8195
346.451935 89.025 10.9823
348.962463 89.048 11.1386
351.491211 89.072 11.2874
354.038239 89.096 11.4316
356.603760 89.119 11.5737
359.187866 89.143 11.7136
361.790680 89.168 11.8520
364.412354 89.194 11.9886
367.053040 89.220 12.1228
369.712860 89.247 12.2556
372.391968 89.275 12.3890
375.090454 89.304 12.5196
377.808533 89.336 12.6459
380.546265 89.370 12.7637
383.303864 89.406 12.8684
386.081451 89.443 12.9598
388.879150 89.481 13.0362
391.697144 89.520 13.0968
394.535522 89.560 13.1404
397.394501 89.600 13.1669
400.274170 89.638 13.1753
403.174744 89.676 13.1680
406.096313 89.713 13.1468
409.039062 89.748 13.1131
412.003113 89.781 13.0688
414.988647 89.812 13.0152
417.995850 89.842 12.9542
421.024811 89.871 12.8862
424.075714 89.898 12.8122
427.148743 89.924 12.7323
430.244049 89.948 12.6465
433.361786 89.971 12.5553
436.502106 89.992 12.4584
439.665161 90.010 12.3583
442.851166 90.026 12.2567
446.060242 90.039 12.1563
449.292572 90.050 12.0595
452.548340 90.058 11.9693
455.827698 90.064 11.8884
459.130798 90.068 11.8192
462.457855 90.070 11.7648
465.809021 90.072 11.7251
469.184448 90.073 11.7014
472.584381 90.075 11.6920
476.008911 90.077 11.6969
479.458252 90.081 11.7129
482.932617 90.087 11.7376
486.432159 90.094 11.7689
489.957031 90.103 11.8048
493.507477 90.113 11.8429
497.083618 90.126 11.8809
500.685699 90.140 11.9169
504.313873 90.156 11.9488
507.968323 90.173 11.9749
511.649292 90.191 11.9940
515.356934 90.211 12.0030
519.091370 90.232 11.9991
522.852966 90.254 11.9811
526.641724 90.276 11.9462
530.458008 90.297 11.8962
534.301941 90.316 11.8315
538.173706 90.334 11.7533
542.073547 90.350 11.6621
546.001648 90.363 11.5604
549.958191 90.373 11.4489
553.943420 90.380 11.3324
557.957520 90.383 11.2146
562.000671 90.382 11.0984
566.073181 90.378 10.9861
570.175171 90.369 10.8833
574.306885 90.355 10.7946
578.468567 90.338 10.7252
582.660400 90.318 10.6802
586.882568 90.294 10.6640
591.135376 90.267 10.6813
595.419006 90.238 10.7357
599.733643 90.209 10.8339
604.079590 90.181 10.9715
608.456970 90.156 11.1479
612.866089 90.135 11.3582
617.307190 90.118 11.5988
621.780457 90.105 11.8651
626.286133 90.098 12.1538
630.824463 90.096 12.4580
635.395691 90.101 12.7701
640.000000 90.111 13.0879
644.637695 90.126 13.4071
649.309021 90.145 13.7259
654.014160 90.169 14.0420
658.753418 90.199 14.3520
663.527039 90.233 14.6527
668.335205 90.273 14.9411
673.178284 90.317 15.2140
678.056396 90.365 15.4682
682.969849 90.417 15.6998
687.918945 90.473 15.9063
692.903870 90.532 16.0844
697.924927 90.593 16.2325
702.982422 90.655 16.3476
708.076477 90.719 16.4308
713.207520 90.782 16.4812
718.375732 90.844 16.5020
723.581360 90.904 16.4938
728.824707 90.961 16.4622
734.106079 91.015 16.4110
739.425720 91.066 16.3453
744.783936 91.114 16.2712
750.180908 91.160 16.1893
755.617065 91.204 16.1014
761.092529 91.246 16.0103
766.607727 91.284 15.9191
772.162903 91.321 15.8293
777.758301 91.357 15.7443
783.394287 91.393 15.6623
789.071045 91.427 15.5820
794.789001 91.461 15.5053
800.548340 91.493 15.4338
806.349487 91.525 15.3672
812.192627 91.558 15.3059
818.078125 91.591 15.2492
824.006226 91.624 15.1967
829.977295 91.657 15.1482
835.991699 91.692 15.1033
842.049622 91.728 15.0621
848.151428 91.764 15.0247
854.297485 91.801 14.9901
860.488098 91.841 14.9594
866.723572 91.884 14.9271
873.004211 91.930 14.8891
879.330322 91.979 14.8432
885.702332 92.030 14.7876
892.120483 92.084 14.7173
898.585144 92.141 14.6281
905.096680 92.201 14.5155
911.655396 92.263 14.3738
918.261597 92.326 14.2027
924.915710 92.389 14.0006
931.618042 92.452 13.7649
938.368896 92.514 13.4921
945.168762 92.575 13.1842
952.017822 92.631 12.8396
958.916504 92.682 12.4665
965.865234 92.727 12.0706
972.864319 92.767 11.6585
979.914062 92.801 11.2355
987.014954 92.828 10.8106
994.167236 92.848 10.3923
1001.371399 92.862 9.9874
1008.627747 92.871 9.6061
1015.936646 92.878 9.2475
1023.298584 92.884 8.9158
1030.713867 92.890 8.6050
1038.182739 92.897 8.3132
1045.705933 92.907 8.0312
1053.283447 92.920 7.7503
1060.916016 92.935 7.4662
1068.603882 92.950 7.1720
1076.347412 92.965 6.8673
1084.147095 92.980 6.5491
