* Measurement data measured by REW V5.20.13
* Source: C:\Users\kurin\Desktop\Targets and Curves\Resolve\Img\Files\goldplanar gl1200_SPL.txt
* Format: Comma/Tab/Space delimited data
* Dated: Aug 14, 2023 4:11:21 PM
* REW Settings:
*  C-weighting compensation: Off
*  Target level: 75.0 dB
* Note: ; Measurement imported from C:\Users\kurin\Desktop\Targets and Curves\Resolve\Img\Files\goldplanar gl1200_SPL.txt Format: Comma/Tab/Space delimited data 623 values loaded, 5 Hz to 39,792 Hz log spaced 
* Measurement: goldplanar gl1200_SPL
* Smoothing: 1/48 octave
* Frequency Step: 1/96 octave
* Start Frequency: 5.000 Hz
*
* Freq(Hz) SPL(dB) Phase(degrees)
5.000000 81.001 33.4260
5.036232 81.013 33.4130
5.072727 81.025 33.3990
5.109486 81.039 33.3826
5.146511 81.056 33.3640
5.183805 81.076 33.3424
5.221369 81.098 33.3190
5.259205 81.121 33.2950
5.297316 81.145 33.2700
5.335702 81.170 33.2438
5.374367 81.196 33.2170
5.413311 81.221 33.1900
5.452538 81.247 33.1630
5.492050 81.272 33.1366
5.531847 81.298 33.1100
5.571934 81.324 33.0826
5.612310 81.350 33.0550
5.652979 81.376 33.0276
5.693943 81.401 33.0000
5.735204 81.427 32.9721
5.776763 81.452 32.9440
5.818624 81.478 32.9156
5.860788 81.503 32.8870
5.903258 81.528 32.8581
5.946035 81.554 32.8290
5.989123 81.580 32.8001
6.032523 81.606 32.7710
6.076237 81.632 32.7417
6.120268 81.657 32.7120
6.164618 81.682 32.6816
6.209289 81.708 32.6510
6.254284 81.733 32.6205
6.299605 81.759 32.5900
6.345255 81.785 32.5596
6.391235 81.811 32.5290
6.437549 81.837 32.4977
6.484198 81.862 32.4660
6.531185 81.887 32.4341
6.578513 81.913 32.4020
6.626183 81.938 32.3696
6.674199 81.964 32.3370
6.722563 81.990 32.3046
6.771278 82.016 32.2720
6.820345 82.042 32.2386
6.869768 82.067 32.2050
6.919549 82.092 32.1716
6.969691 82.118 32.1380
7.020196 82.143 32.1037
7.071068 82.169 32.0690
7.122308 82.194 32.0341
7.173919 82.220 31.9990
7.225904 82.246 31.9641
7.278266 82.272 31.9290
7.331007 82.298 31.8932
7.384131 82.323 31.8570
7.437639 82.348 31.8206
7.491535 82.374 31.7840
7.545822 82.399 31.7471
7.600502 82.425 31.7100
7.655579 82.451 31.6726
7.711054 82.477 31.6350
7.766932 82.503 31.5971
7.823214 82.528 31.5590
7.879904 82.553 31.5207
7.937005 82.579 31.4820
7.994520 82.604 31.4426
8.052452 82.630 31.4030
8.110803 82.655 31.3636
8.169578 82.681 31.3240
8.228777 82.707 31.2838
8.288406 82.733 31.2430
8.348468 82.759 31.2016
8.408964 82.784 31.1600
8.469899 82.809 31.1186
8.531276 82.835 31.0770
8.593097 82.860 31.0347
8.655366 82.886 30.9920
8.718086 82.912 30.9492
8.781260 82.938 30.9060
8.844893 82.964 30.8621
8.908987 82.989 30.8180
8.973545 83.014 30.7742
9.038571 83.040 30.7300
9.104069 83.065 30.6848
9.170040 83.091 30.6390
9.236490 83.117 30.5931
9.303422 83.143 30.5470
9.370838 83.169 30.5006
9.438744 83.194 30.4540
9.507140 83.219 30.4073
9.576033 83.245 30.3600
9.645425 83.270 30.3117
9.715320 83.296 30.2630
9.785721 83.321 30.2147
9.856632 83.347 30.1660
9.928058 83.373 30.1162
10.000000 83.399 30.0660
10.072464 83.425 30.0162
10.145453 83.450 29.9661
10.218971 83.475 29.9148
10.293022 83.501 29.8630
10.367610 83.526 29.8112
10.442738 83.552 29.7590
10.518411 83.578 29.7063
10.594631 83.604 29.6530
10.671404 83.630 29.5992
10.748734 83.655 29.5450
10.826623 83.680 29.4908
10.905077 83.706 29.4360
10.984100 83.731 29.3803
11.063695 83.757 29.3240
11.143867 83.782 29.2677
11.224621 83.808 29.2110
11.305959 83.834 29.1538
11.387886 83.860 29.0960
11.470407 83.886 29.0378
11.553527 83.911 28.9790
11.637249 83.936 28.9198
11.721577 83.962 28.8601
11.806517 83.987 28.7998
11.892071 84.013 28.7391
11.978246 84.039 28.6778
12.065045 84.065 28.6160
12.152473 84.091 28.5533
12.240536 84.116 28.4900
12.329235 84.141 28.4268
12.418578 84.167 28.3631
12.508568 84.192 28.2984
12.599211 84.218 28.2330
12.690510 84.244 28.1673
12.782471 84.270 28.1011
12.875097 84.296 28.0344
12.968395 84.321 27.9670
13.062370 84.346 27.8988
13.157025 84.372 27.8300
13.252366 84.397 27.7608
13.348398 84.423 27.6911
13.445127 84.448 27.6204
13.542556 84.474 27.5491
13.640691 84.500 27.4769
13.739536 84.526 27.4040
13.839099 84.552 27.3308
13.939383 84.577 27.2571
14.040393 84.602 27.1829
14.142136 84.628 27.1080
14.244616 84.653 27.0320
14.347837 84.679 26.9550
14.451808 84.705 26.8773
14.556532 84.731 26.7990
14.662014 84.757 26.7204
14.768262 84.782 26.6411
14.875278 84.807 26.5605
14.983070 84.833 26.4791
15.091644 84.858 26.3969
15.201005 84.884 26.3141
15.311157 84.910 26.2304
15.422109 84.936 26.1461
15.533863 84.962 26.0610
15.646428 84.987 25.9750
15.759809 85.012 25.8881
15.874010 85.038 25.8001
15.989040 85.063 25.7110
16.104904 85.089 25.6211
16.221605 85.114 25.5306
16.339155 85.140 25.4391
16.457554 85.166 25.3461
16.576813 85.192 25.2521
16.696936 85.218 25.1575
16.817928 85.243 25.0621
16.939798 85.268 24.9657
17.062551 85.294 24.8681
17.186193 85.319 24.7692
17.310732 85.345 24.6691
17.436172 85.371 24.5681
17.562521 85.397 24.4661
17.689787 85.423 24.3627
17.817974 85.448 24.2581
17.947090 85.473 24.1522
18.077143 85.499 24.0451
18.208138 85.524 23.9368
18.340080 85.550 23.8271
18.472980 85.575 23.7160
18.606844 85.601 23.6031
18.741676 85.627 23.4879
18.877487 85.653 23.3711
19.014280 85.678 23.2531
19.152065 85.703 23.1341
19.290850 85.728 23.0142
19.430639 85.752 22.8951
19.571442 85.775 22.7785
19.713264 85.799 22.6651
19.856115 85.823 22.5574
20.000000 85.848 22.4521
20.144928 85.875 22.3480
20.290907 85.904 22.2411
20.437943 85.934 22.1270
20.586044 85.966 22.0051
20.735220 85.998 21.8744
20.885475 86.031 21.7322
21.036821 86.065 21.5743
21.189262 86.099 21.4032
21.342808 86.130 21.2180
21.497467 86.160 21.0242
21.653246 86.188 20.8275
21.810154 86.215 20.6273
21.968201 86.242 20.4253
22.127390 86.268 20.2202
22.287735 86.294 20.0120
22.449242 86.321 19.7982
22.611917 86.348 19.5782
22.775772 86.375 19.3463
22.940815 86.403 19.0965
23.107054 86.431 18.8284
23.274498 86.456 18.5381
23.443153 86.479 18.2294
23.613033 86.497 17.9028
23.784142 86.511 17.5643
23.956491 86.519 17.2167
24.130091 86.520 16.8704
24.304947 86.514 16.5334
24.481071 86.502 16.2154
24.658470 86.483 15.9269
24.837156 86.460 15.6733
25.017136 86.433 15.4630
25.198421 86.405 15.2971
25.381020 86.376 15.1814
25.564941 86.348 15.1110
25.750195 86.324 15.0859
25.936790 86.304 15.0980
26.124741 86.290 15.1417
26.314051 86.283 15.2089
26.504732 86.283 15.2925
26.696796 86.290 15.3829
26.890253 86.305 15.4700
27.085112 86.327 15.5479
27.281382 86.355 15.6094
27.479073 86.388 15.6480
27.678198 86.428 15.6557
27.878765 86.471 15.6301
28.080786 86.516 15.5652
28.284271 86.562 15.4632
28.489231 86.608 15.3231
28.695675 86.653 15.1473
28.903616 86.696 14.9363
29.113064 86.737 14.6944
29.324028 86.774 14.4245
29.536524 86.808 14.1314
29.750557 86.837 13.8195
29.966141 86.863 13.4924
30.183289 86.885 13.1543
30.402010 86.902 12.8074
30.622314 86.915 12.4542
30.844217 86.924 12.0984
31.067726 86.928 11.7424
31.292856 86.927 11.3925
31.519617 86.921 11.0543
31.748020 86.910 10.7324
31.978081 86.896 10.4327
32.209808 86.879 10.1563
32.443211 86.861 9.9076
32.678310 86.843 9.6833
32.915108 86.825 9.4829
33.153625 86.808 9.3022
33.393871 86.793 9.1392
33.635857 86.781 8.9872
33.879597 86.772 8.8408
34.125103 86.765 8.6942
34.372387 86.760 8.5402
34.621464 86.757 8.3773
34.872345 86.754 8.2002
35.125042 86.751 8.0122
35.379574 86.745 7.8133
35.635948 86.737 7.6082
35.894180 86.726 7.4000
36.154285 86.711 7.1943
36.416275 86.693 6.9965
36.680161 86.673 6.8103
36.945961 86.650 6.6396
37.213688 86.624 6.4882
37.483353 86.597 6.3617
37.754974 86.570 6.2581
38.028561 86.544 6.1790
38.304131 86.519 6.1191
38.581699 86.497 6.0746
38.861279 86.477 6.0430
39.142883 86.459 6.0213
39.426529 86.442 6.0080
39.712231 86.428 6.0017
40.000000 86.416 6.0000
40.289856 86.407 6.0002
40.581814 86.399 6.0020
40.875885 86.392 6.0038
41.172089 86.387 6.0070
41.470440 86.383 6.0139
41.770950 86.382 6.0200
42.073643 86.384 6.0226
42.378525 86.388 6.0180
42.685616 86.395 6.0023
42.994934 86.403 5.9741
43.306492 86.413 5.9314
43.620308 86.424 5.8711
43.936401 86.436 5.7886
44.254780 86.448 5.6852
44.575470 86.458 5.5599
44.898483 86.466 5.4152
45.223835 86.472 5.2517
45.551544 86.475 5.0743
45.881630 86.473 4.8855
46.214108 86.466 4.6933
46.548996 86.453 4.5038
46.886307 86.436 4.3243
47.226067 86.414 4.1627
47.568283 86.389 4.0232
47.912983 86.360 3.9117
48.260181 86.329 3.8311
48.609894 86.296 3.7870
48.962143 86.264 3.7770
49.316940 86.234 3.8021
49.674313 86.207 3.8569
50.034271 86.184 3.9380
50.396843 86.165 4.0398
50.762039 86.151 4.1576
51.129883 86.141 4.2858
51.500389 86.137 4.4196
51.873581 86.139 4.5518
52.249481 86.147 4.6750
52.628101 86.159 4.7848
53.009464 86.175 4.8751
53.393593 86.194 4.9439
53.780506 86.216 4.9874
54.170223 86.240 5.0050
54.562763 86.264 4.9934
54.958145 86.287 4.9571
55.356396 86.309 4.8985
55.757530 86.329 4.8211
56.161572 86.347 4.7282
56.568542 86.364 4.6222
56.978462 86.379 4.5052
57.391350 86.391 4.3812
57.807232 86.400 4.2549
58.226128 86.408 4.1262
58.648056 86.415 3.9970
59.073048 86.422 3.8662
59.501114 86.427 3.7330
59.932281 86.431 3.5992
60.366577 86.433 3.4662
60.804020 86.434 3.3342
61.244629 86.435 3.2047
61.688435 86.436 3.0762
62.135452 86.436 2.9480
62.585712 86.436 2.8192
63.039234 86.436 2.6890
63.496040 86.435 2.5562
63.956161 86.434 2.4196
64.419617 86.432 2.2793
64.886421 86.430 2.1345
65.356621 86.426 1.9873
65.830215 86.421 1.8392
66.307251 86.414 1.6903
66.787743 86.406 1.5410
67.271713 86.397 1.3923
67.759193 86.386 1.2446
68.250206 86.374 1.1003
68.744774 86.360 0.9619
69.242928 86.346 0.8282
69.744690 86.331 0.6985
70.250084 86.316 0.5732
70.759148 86.299 0.4526
71.271896 86.281 0.3372
71.788361 86.262 0.2281
72.308571 86.243 0.1242
72.832550 86.223 0.0238
73.360321 86.203 -0.0708
73.891922 86.181 -0.1578
74.427376 86.159 -0.2379
74.966705 86.137 -0.3106
75.509949 86.115 -0.3769
76.057121 86.092 -0.4375
76.608261 86.069 -0.4919
77.163399 86.046 -0.5397
77.722557 86.022 -0.5809
78.285767 85.998 -0.6146
78.853058 85.975 -0.6429
79.424461 85.952 -0.6682
80.000000 85.929 -0.6900
80.579712 85.905 -0.7092
81.163628 85.881 -0.7240
81.751770 85.856 -0.7329
82.344177 85.831 -0.7360
82.940880 85.805 -0.7336
83.541901 85.779 -0.7240
84.147285 85.751 -0.7062
84.757050 85.723 -0.6781
85.371231 85.694 -0.6375
85.989868 85.664 -0.5841
86.612984 85.635 -0.5164
87.240616 85.606 -0.4352
87.872803 85.578 -0.3401
88.509560 85.551 -0.2332
89.150940 85.526 -0.1169
89.796967 85.501 0.0097
90.447670 85.476 0.1469
91.103088 85.452 0.2947
91.763260 85.430 0.4537
92.428215 85.409 0.6226
93.097992 85.390 0.7993
93.772614 85.371 0.9866
94.452133 85.353 1.1876
95.136566 85.336 1.4005
95.825966 85.322 1.6250
96.520363 85.311 1.8595
97.219788 85.302 2.1022
97.924286 85.295 2.3535
98.633881 85.291 2.6142
99.348625 85.290 2.8814
100.068542 85.294 3.1536
100.793686 85.301 3.4273
101.524078 85.311 3.6994
102.259766 85.325 3.9683
103.000778 85.343 4.2321
103.747162 85.364 4.4885
104.498962 85.389 4.7361
105.256203 85.418 4.9716
106.018929 85.450 5.1917
106.787186 85.485 5.3956
107.561012 85.522 5.5821
108.340446 85.562 5.7497
109.125526 85.604 5.8970
109.916290 85.648 6.0228
110.712791 85.694 6.1258
111.515060 85.741 6.2049
112.323143 85.790 6.2590
113.137085 85.839 6.2870
113.956924 85.889 6.2871
114.782700 85.938 6.2601
115.614464 85.986 6.2055
116.452255 86.034 6.1252
117.296112 86.080 6.0209
118.146095 86.124 5.8923
119.002228 86.167 5.7382
119.864563 86.207 5.5625
120.733154 86.243 5.3679
121.608040 86.275 5.1575
122.489258 86.304 4.9350
123.376869 86.331 4.7006
124.270905 86.354 4.4540
125.171425 86.374 4.1995
126.078468 86.389 3.9405
126.992081 86.400 3.6786
127.912323 86.409 3.4165
128.839233 86.415 3.1545
129.772842 86.417 2.8923
130.713242 86.415 2.6345
131.660431 86.409 2.3856
132.614502 86.400 2.1457
133.575485 86.389 1.9155
134.543427 86.376 1.6974
135.518387 86.359 1.4930
136.500412 86.340 1.3043
137.489548 86.319 1.1349
138.485855 86.298 0.9814
139.489380 86.277 0.8418
140.500168 86.255 0.7163
141.518295 86.232 0.6038
142.543793 86.208 0.5052
143.576721 86.184 0.4216
144.617142 86.160 0.3511
145.665100 86.137 0.2928
146.720642 86.115 0.2451
147.783844 86.092 0.2061
148.854752 86.070 0.1771
149.933411 86.048 0.1591
151.019897 86.026 0.1510
152.114243 86.006 0.1525
153.216522 85.986 0.1620
154.326797 85.967 0.1771
155.445114 85.949 0.1989
156.571533 85.931 0.2283
157.706116 85.915 0.2629
158.848923 85.901 0.3008
160.000000 85.887 0.3419
161.159424 85.873 0.3850
162.327255 85.860 0.4309
163.503540 85.848 0.4813
164.688354 85.837 0.5329
165.881760 85.827 0.5830
167.083801 85.818 0.6319
168.294571 85.809 0.6782
169.514099 85.801 0.7239
170.742462 85.792 0.7706
171.979736 85.783 0.8179
173.225967 85.774 0.8657
174.481232 85.766 0.9139
175.745605 85.758 0.9618
177.019119 85.749 1.0109
178.301880 85.739 1.0614
179.593933 85.729 1.1159
180.895340 85.718 1.1778
182.206177 85.708 1.2448
183.526520 85.699 1.3152
184.856430 85.689 1.3908
186.195984 85.678 1.4720
187.545227 85.666 1.5618
188.904266 85.655 1.6642
190.273132 85.645 1.7767
191.651932 85.636 1.8979
193.040726 85.628 2.0276
194.439575 85.621 2.1651
195.848572 85.614 2.3116
197.267761 85.609 2.4686
198.697250 85.605 2.6346
200.137085 85.603 2.8078
201.587372 85.603 2.9906
203.048157 85.604 3.1845
204.519531 85.607 3.3894
206.001556 85.613 3.6063
207.494324 85.623 3.8324
208.997925 85.637 4.0677
210.512405 85.657 4.3054
212.037857 85.683 4.5421
213.574371 85.716 4.7675
215.122025 85.755 4.9727
216.680893 85.801 5.1506
218.251053 85.852 5.2933
219.832581 85.907 5.3938
221.425583 85.966 5.4419
223.030121 86.026 5.4381
224.646286 86.084 5.3762
226.274170 86.140 5.2653
227.913849 86.189 5.1100
229.565399 86.233 4.9185
231.228928 86.271 4.6977
232.904510 86.303 4.4568
234.592224 86.326 4.2049
236.292191 86.342 3.9497
238.004456 86.353 3.7004
239.729126 86.358 3.4606
241.466309 86.358 3.2366
243.216080 86.355 3.0295
244.978516 86.349 2.8429
246.753738 86.341 2.6755
248.541809 86.332 2.5269
250.342850 86.321 2.3973
252.156937 86.309 2.2872
253.984161 86.297 2.1952
255.824646 86.286 2.1216
257.678467 86.276 2.0621
259.545685 86.267 2.0133
261.426483 86.260 1.9731
263.320862 86.254 1.9393
265.229004 86.249 1.9091
267.150970 86.246 1.8792
269.086853 86.245 1.8481
271.036774 86.244 1.8128
273.000824 86.243 1.7741
274.979095 86.242 1.7318
276.971710 86.241 1.6861
278.978760 86.240 1.6364
281.000336 86.238 1.5851
283.036591 86.234 1.5338
285.087585 86.229 1.4851
287.153442 86.223 1.4427
289.234283 86.217 1.4061
291.330200 86.211 1.3760
293.441284 86.205 1.3521
295.567688 86.198 1.3344
297.709503 86.192 1.3220
299.866821 86.187 1.3151
302.039795 86.183 1.3110
304.228485 86.180 1.3071
306.433044 86.177 1.3040
308.653595 86.174 1.3006
310.890228 86.171 1.3000
313.143066 86.167 1.3053
315.412231 86.163 1.3160
317.697845 86.161 1.3333
320.000000 86.161 1.3549
322.318848 86.162 1.3802
324.654510 86.165 1.4049
327.007080 86.171 1.4271
329.376709 86.179 1.4400
331.763519 86.191 1.4378
334.167603 86.205 1.4161
336.589142 86.220 1.3671
339.028198 86.234 1.2942
341.484924 86.245 1.1967
343.959473 86.253 1.0793
346.451935 86.258 0.9451
348.962463 86.259 0.7994
351.491211 86.255 0.6460
354.038239 86.246 0.4934
356.603760 86.232 0.3507
359.187866 86.213 0.2204
361.790680 86.191 0.1079
364.412354 86.166 0.0142
367.053040 86.139 -0.0580
369.712860 86.111 -0.1079
372.391968 86.081 -0.1336
375.090454 86.050 -0.1350
377.808533 86.019 -0.1111
380.546265 85.988 -0.0622
383.303864 85.958 0.0124
386.081451 85.929 0.1107
388.879150 85.902 0.2320
391.697144 85.878 0.3725
394.535522 85.857 0.5295
397.394501 85.839 0.6995
400.274170 85.824 0.8788
403.174744 85.813 1.0654
406.096313 85.805 1.2570
409.039062 85.799 1.4514
412.003113 85.797 1.6451
414.988647 85.797 1.8394
417.995850 85.798 2.0347
421.024811 85.801 2.2304
424.075714 85.808 2.4266
427.148743 85.818 2.6204
430.244049 85.830 2.8089
433.361786 85.845 2.9914
436.502106 85.862 3.1674
439.665161 85.882 3.3335
442.851166 85.906 3.4875
446.060242 85.932 3.6256
449.292572 85.959 3.7426
452.548340 85.987 3.8407
455.827698 86.015 3.9198
459.130798 86.044 3.9818
462.457855 86.072 4.0284
465.809021 86.099 4.0609
469.184448 86.125 4.0810
472.584381 86.150 4.0900
476.008911 86.174 4.0891
479.458252 86.197 4.0800
482.932617 86.218 4.0642
486.432159 86.239 4.0431
489.957031 86.258 4.0192
493.507477 86.277 3.9911
497.083618 86.295 3.9571
500.685699 86.311 3.9201
504.313873 86.325 3.8817
507.968323 86.338 3.8451
511.649292 86.349 3.8142
515.356934 86.360 3.7891
519.091370 86.370 3.7709
522.852966 86.380 3.7600
526.641724 86.389 3.7575
530.458008 86.399 3.7620
534.301941 86.411 3.7739
538.173706 86.424 3.7889
542.073547 86.439 3.8031
546.001648 86.455 3.8160
549.958191 86.472 3.8258
553.943420 86.489 3.8320
557.957520 86.508 3.8331
562.000671 86.527 3.8300
566.073181 86.546 3.8230
570.175171 86.566 3.8120
574.306885 86.586 3.7979
578.468567 86.607 3.7791
582.660400 86.629 3.7553
586.882568 86.652 3.7241
591.135376 86.676 3.6825
595.419006 86.700 3.6312
599.733643 86.723 3.5700
604.079590 86.746 3.4993
608.456970 86.769 3.4189
612.866089 86.792 3.3293
617.307190 86.813 3.2300
621.780457 86.832 3.1244
626.286133 86.850 3.0157
630.824463 86.867 2.9044
635.395691 86.883 2.7914
640.000000 86.898 2.6784
644.637695 86.911 2.5671
649.309021 86.924 2.4574
654.014160 86.937 2.3502
658.753418 86.950 2.2434
663.527039 86.963 2.1349
668.335205 86.976 2.0254
673.178284 86.988 1.9152
678.056396 87.001 1.8024
682.969849 87.014 1.6848
687.918945 87.027 1.5634
692.903870 87.038 1.4374
697.924927 87.048 1.3094
702.982422 87.057 1.1818
708.076477 87.065 1.0555
713.207520 87.072 0.9324
718.375732 87.079 0.8124
723.581360 87.085 0.6970
728.824707 87.092 0.5834
734.106079 87.100 0.4702
739.425720 87.108 0.3554
744.783936 87.117 0.2374
750.180908 87.126 0.1144
755.617065 87.134 -0.0169
761.092529 87.141 -0.1525
766.607727 87.146 -0.2904
772.162903 87.150 -0.4275
777.758301 87.153 -0.5609
783.394287 87.154 -0.6886
789.071045 87.154 -0.8085
794.789001 87.153 -0.9186
800.548340 87.151 -1.0145
806.349487 87.151 -1.1007
812.192627 87.154 -1.1789
818.078125 87.160 -1.2537
824.006226 87.166 -1.3299
829.977295 87.174 -1.4087
835.991699 87.185 -1.4917
842.049622 87.197 -1.5826
848.151428 87.211 -1.6858
854.297485 87.225 -1.8015
860.488098 87.239 -1.9319
866.723572 87.254 -2.0764
873.004211 87.268 -2.2361
879.330322 87.282 -2.4094
885.702332 87.294 -2.5954
892.120483 87.305 -2.7923
898.585144 87.313 -2.9981
905.096680 87.320 -3.2122
911.655396 87.325 -3.4339
918.261597 87.329 -3.6612
924.915710 87.330 -3.8923
931.618042 87.328 -4.1252
938.368896 87.324 -4.3583
945.168762 87.317 -4.5881
952.017822 87.308 -4.8112
958.916504 87.296 -5.0262
965.865234 87.283 -5.2303
972.864319 87.269 -5.4243
979.914062 87.255 -5.6081
987.014954 87.240 -5.7814
994.167236 87.224 -5.9429
1001.371399 87.209 -6.0955
1008.627747 87.196 -6.2396
1015.936646 87.185 -6.3814
1023.298584 87.176 -6.5266
1030.713867 87.168 -6.6775
1038.182739 87.160 -6.8373
1045.705933 87.153 -7.0092
1053.283447 87.147 -7.1973
1060.916016 87.140 -7.4021
1068.603882 87.131 -7.6272
1076.347412 87.118 -7.8670
1084.147095 87.101 -8.1198
1092.003296 87.079 -8.3771
1099.916382 87.051 -8.6328
1107.886841 87.018 -8.8780
