* Measurement data measured by REW V5.20.13
* Source: C:\Users\kurin\Desktop\Targets and Curves\Resolve\Img\Files\audeze lcd-5_SPL.txt
* Format: Comma/Tab/Space delimited data
* Dated: Aug 14, 2023 3:01:41 PM
* REW Settings:
*  C-weighting compensation: Off
*  Target level: 75.0 dB
* Note: ; Measurement imported from C:\Users\kurin\Desktop\Targets and Curves\Resolve\Img\Files\audeze lcd-5_SPL.txt Format: Comma/Tab/Space delimited data 623 values loaded, 5 Hz to 39,792 Hz log spaced 
* Measurement: audeze lcd-5_SPL
* Smoothing: 1/48 octave
* Frequency Step: 1/96 octave
* Start Frequency: 5.000 Hz
*
* Freq(Hz) SPL(dB) Phase(degrees)
5.000000 82.824 9.7190
5.036232 82.827 9.7195
5.072727 82.830 9.7200
5.109486 82.834 9.7204
5.146511 82.838 9.7210
5.183805 82.843 9.7219
5.221369 82.848 9.7230
5.259205 82.854 9.7244
5.297316 82.860 9.7260
5.335702 82.866 9.7279
5.374367 82.873 9.7300
5.413311 82.880 9.7320
5.452538 82.887 9.7340
5.492050 82.894 9.7360
5.531847 82.900 9.7380
5.571934 82.907 9.7400
5.612310 82.913 9.7420
5.652979 82.920 9.7440
5.693943 82.926 9.7460
5.735204 82.933 9.7479
5.776763 82.939 9.7500
5.818624 82.945 9.7525
5.860788 82.952 9.7550
5.903258 82.959 9.7571
5.946035 82.966 9.7590
5.989123 82.973 9.7609
6.032523 82.979 9.7630
6.076237 82.985 9.7654
6.120268 82.992 9.7680
6.164618 82.998 9.7706
6.209289 83.005 9.7730
6.254284 83.011 9.7750
6.299605 83.018 9.7770
6.345255 83.024 9.7794
6.391235 83.031 9.7820
6.437549 83.037 9.7845
6.484198 83.044 9.7870
6.531185 83.051 9.7895
6.578513 83.058 9.7920
6.626183 83.065 9.7945
6.674199 83.071 9.7970
6.722563 83.077 9.7995
6.771278 83.084 9.8020
6.820345 83.090 9.8044
6.869768 83.097 9.8070
6.919549 83.104 9.8100
6.969691 83.110 9.8130
7.020196 83.116 9.8156
7.071068 83.123 9.8180
7.122308 83.130 9.8204
7.173919 83.137 9.8230
7.225904 83.144 9.8259
7.278266 83.150 9.8290
7.331007 83.157 9.8321
7.384131 83.163 9.8350
7.437639 83.170 9.8375
7.491535 83.176 9.8400
7.545822 83.183 9.8429
7.600502 83.189 9.8460
7.655579 83.195 9.8490
7.711054 83.202 9.8520
7.766932 83.209 9.8550
7.823214 83.216 9.8580
7.879904 83.223 9.8610
7.937005 83.229 9.8640
7.994520 83.235 9.8670
8.052452 83.242 9.8700
8.110803 83.248 9.8729
8.169578 83.255 9.8760
8.228777 83.261 9.8795
8.288406 83.268 9.8830
8.348468 83.274 9.8860
8.408964 83.281 9.8890
8.469899 83.287 9.8925
8.531276 83.294 9.8960
8.593097 83.301 9.8990
8.655366 83.308 9.9020
8.718086 83.315 9.9054
8.781260 83.321 9.9090
8.844893 83.327 9.9125
8.908987 83.334 9.9160
8.973545 83.340 9.9195
9.038571 83.347 9.9230
9.104069 83.354 9.9265
9.170040 83.360 9.9300
9.236490 83.366 9.9335
9.303422 83.373 9.9370
9.370838 83.380 9.9405
9.438744 83.387 9.9440
9.507140 83.394 9.9474
9.576033 83.400 9.9510
9.645425 83.407 9.9550
9.715320 83.413 9.9590
9.785721 83.420 9.9625
9.856632 83.426 9.9660
9.928058 83.433 9.9699
10.000000 83.439 9.9740
10.072464 83.445 9.9781
10.145453 83.452 9.9820
10.218971 83.459 9.9855
10.293022 83.466 9.9890
10.367610 83.473 9.9929
10.442738 83.479 9.9970
10.518411 83.485 10.0009
10.594631 83.492 10.0050
10.671404 83.498 10.0095
10.748734 83.505 10.0140
10.826623 83.511 10.0181
10.905077 83.518 10.0220
10.984100 83.524 10.0259
11.063695 83.531 10.0300
11.143867 83.537 10.0345
11.224621 83.544 10.0390
11.305959 83.551 10.0430
11.387886 83.558 10.0470
11.470407 83.565 10.0514
11.553527 83.571 10.0560
11.637249 83.577 10.0605
11.721577 83.584 10.0650
11.806517 83.590 10.0695
11.892071 83.597 10.0740
11.978246 83.604 10.0785
12.065045 83.610 10.0830
12.152473 83.616 10.0875
12.240536 83.623 10.0920
12.329235 83.630 10.0965
12.418578 83.637 10.1010
12.508568 83.644 10.1054
12.599211 83.650 10.1100
12.690510 83.656 10.1150
12.782471 83.663 10.1200
12.875097 83.669 10.1245
12.968395 83.676 10.1290
13.062370 83.683 10.1339
13.157025 83.689 10.1390
13.252366 83.696 10.1440
13.348398 83.702 10.1490
13.445127 83.708 10.1540
13.542556 83.715 10.1590
13.640691 83.722 10.1640
13.739536 83.729 10.1690
13.839099 83.736 10.1740
13.939383 83.742 10.1790
14.040393 83.748 10.1840
14.142136 83.755 10.1890
14.244616 83.761 10.1940
14.347837 83.768 10.1990
14.451808 83.774 10.2040
14.556532 83.781 10.2090
14.662014 83.787 10.2139
14.768262 83.794 10.2190
14.875278 83.801 10.2245
14.983070 83.808 10.2300
15.091644 83.815 10.2351
15.201005 83.821 10.2400
15.311157 83.827 10.2449
15.422109 83.834 10.2500
15.533863 83.840 10.2555
15.646428 83.847 10.2610
15.759809 83.853 10.2661
15.874010 83.860 10.2710
15.989040 83.866 10.2759
16.104904 83.873 10.2810
16.221605 83.880 10.2865
16.339155 83.887 10.2920
16.457554 83.894 10.2971
16.576813 83.900 10.3020
16.696936 83.906 10.3070
16.817928 83.913 10.3120
16.939798 83.919 10.3171
17.062551 83.926 10.3220
17.186193 83.932 10.3265
17.310732 83.939 10.3310
17.436172 83.946 10.3360
17.562521 83.952 10.3410
17.689787 83.958 10.3456
17.817974 83.965 10.3500
17.947090 83.972 10.3541
18.077143 83.979 10.3580
18.208138 83.986 10.3621
18.340080 83.992 10.3660
18.472980 83.998 10.3697
18.606844 84.005 10.3730
18.741676 84.011 10.3757
18.877487 84.018 10.3780
19.014280 84.024 10.3802
19.152065 84.031 10.3820
19.290850 84.037 10.3830
19.430639 84.044 10.3830
19.571442 84.051 10.3816
19.713264 84.057 10.3790
19.856115 84.063 10.3754
20.000000 84.069 10.3710
20.144928 84.075 10.3655
20.290907 84.080 10.3600
20.437943 84.084 10.3549
20.586044 84.088 10.3520
20.735220 84.091 10.3534
20.885475 84.093 10.3590
21.036821 84.096 10.3695
21.189262 84.099 10.3850
21.342808 84.102 10.4063
21.497467 84.106 10.4310
21.653246 84.111 10.4580
21.810154 84.118 10.4840
21.968201 84.126 10.5047
22.127390 84.134 10.5210
22.287735 84.142 10.5321
22.449242 84.150 10.5390
22.611917 84.158 10.5423
22.775772 84.165 10.5430
22.940815 84.171 10.5411
23.107054 84.177 10.5400
23.274498 84.181 10.5439
23.443153 84.186 10.5510
23.613033 84.192 10.5626
23.784142 84.199 10.5740
23.956491 84.206 10.5806
24.130091 84.214 10.5830
24.304947 84.222 10.5803
24.481071 84.231 10.5720
24.658470 84.239 10.5570
24.837156 84.246 10.5360
25.017136 84.253 10.5081
25.198421 84.258 10.4770
25.381020 84.261 10.4461
25.564941 84.262 10.4160
25.750195 84.263 10.3891
25.936790 84.264 10.3640
26.124741 84.264 10.3403
26.314051 84.263 10.3180
26.504732 84.262 10.2969
26.696796 84.259 10.2780
26.890253 84.255 10.2613
27.085112 84.250 10.2500
27.281382 84.243 10.2472
27.479073 84.235 10.2530
27.678198 84.227 10.2682
27.878765 84.219 10.2930
28.080786 84.211 10.3282
28.284271 84.203 10.3719
28.489231 84.196 10.4234
28.695675 84.190 10.4799
28.903616 84.186 10.5392
29.113064 84.182 10.5989
29.324028 84.179 10.6552
29.536524 84.175 10.7109
29.750557 84.170 10.7663
29.966141 84.163 10.8249
30.183289 84.155 10.8907
30.402010 84.147 10.9639
30.622314 84.138 11.0457
30.844217 84.129 11.1369
31.067726 84.119 11.2377
31.292856 84.108 11.3508
31.519617 84.097 11.4791
31.748020 84.086 11.6228
31.978081 84.075 11.7831
32.209808 84.065 11.9608
32.443211 84.055 12.1561
32.678310 84.047 12.3717
32.915108 84.040 12.6099
33.153625 84.035 12.8717
33.393871 84.033 13.1611
33.635857 84.036 13.4715
33.879597 84.046 13.8011
34.125103 84.064 14.1385
34.372387 84.090 14.4747
34.621464 84.123 14.8015
34.872345 84.165 15.1122
35.125042 84.214 15.3937
35.379574 84.272 15.6330
35.635948 84.335 15.8228
35.894180 84.401 15.9506
36.154285 84.468 16.0189
36.416275 84.532 16.0240
36.680161 84.593 15.9731
36.945961 84.649 15.8681
37.213688 84.698 15.7212
37.483353 84.736 15.5404
37.754974 84.765 15.3413
38.028561 84.783 15.1382
38.304131 84.792 14.9442
38.581699 84.791 14.7738
38.861279 84.782 14.6372
39.142883 84.767 14.5485
39.426529 84.747 14.5100
39.712231 84.725 14.5294
40.000000 84.703 14.6038
40.289856 84.683 14.7355
40.581814 84.666 14.9167
40.875885 84.656 15.1446
41.172089 84.652 15.4076
41.470440 84.657 15.6959
41.770950 84.670 16.0005
42.073643 84.691 16.3115
42.378525 84.721 16.6216
42.685616 84.758 16.9228
42.994934 84.803 17.2076
43.306492 84.855 17.4671
43.620308 84.914 17.6977
43.936401 84.977 17.8937
44.254780 85.045 18.0518
44.575470 85.117 18.1679
44.898483 85.192 18.2379
45.223835 85.269 18.2554
45.551544 85.345 18.2231
45.881630 85.419 18.1397
46.214108 85.490 18.0112
46.548996 85.556 17.8406
46.886307 85.618 17.6354
47.226067 85.674 17.4012
47.568283 85.724 17.1464
47.912983 85.767 16.8799
48.260181 85.805 16.6055
48.609894 85.839 16.3296
48.962143 85.868 16.0534
49.316940 85.894 15.7810
49.674313 85.916 15.5104
50.034271 85.936 15.2417
50.396843 85.953 14.9734
50.762039 85.968 14.7037
51.129883 85.979 14.4345
51.500389 85.986 14.1655
51.873581 85.988 13.9014
52.249481 85.987 13.6453
52.628101 85.981 13.4024
53.009464 85.970 13.1773
53.393593 85.954 12.9753
53.780506 85.935 12.8028
54.170223 85.913 12.6612
54.562763 85.889 12.5540
54.958145 85.864 12.4821
55.356396 85.838 12.4476
55.757530 85.813 12.4510
56.161572 85.789 12.4949
56.568542 85.768 12.5748
56.978462 85.751 12.6886
57.391350 85.739 12.8317
57.807232 85.732 13.0007
58.226128 85.730 13.1897
58.648056 85.735 13.3942
59.073048 85.748 13.6056
59.501114 85.768 13.8155
59.932281 85.795 14.0186
60.366577 85.828 14.2091
60.804020 85.868 14.3807
61.244629 85.915 14.5273
61.688435 85.967 14.6428
62.135452 86.023 14.7200
62.585712 86.083 14.7560
63.039234 86.146 14.7460
63.496040 86.211 14.6881
63.956161 86.276 14.5781
64.419617 86.339 14.4183
64.886421 86.399 14.2075
65.356621 86.454 13.9525
65.830215 86.503 13.6567
66.307251 86.546 13.3297
66.787743 86.581 12.9783
67.271713 86.609 12.6137
67.759193 86.627 12.2464
68.250206 86.638 11.8847
68.744774 86.642 11.5401
69.242928 86.642 11.2126
69.744690 86.639 10.9058
70.250084 86.632 10.6195
70.759148 86.622 10.3547
71.271896 86.610 10.1114
71.788361 86.597 9.8915
72.308571 86.583 9.6904
72.832550 86.571 9.5042
73.360321 86.558 9.3323
73.891922 86.544 9.1720
74.427376 86.529 9.0253
74.966705 86.514 8.8945
75.509949 86.499 8.7762
76.057121 86.486 8.6685
76.608261 86.474 8.5692
77.163399 86.462 8.4753
77.722557 86.450 8.3872
78.285767 86.438 8.3044
78.853058 86.427 8.2272
79.424461 86.415 8.1558
80.000000 86.404 8.0891
80.579712 86.393 8.0250
81.163628 86.382 7.9671
81.751770 86.369 7.9173
82.344177 86.355 7.8791
82.940880 86.340 7.8579
83.541901 86.327 7.8500
84.147285 86.317 7.8540
84.757050 86.309 7.8680
85.371231 86.301 7.8902
85.989868 86.295 7.9179
86.612984 86.293 7.9503
87.240616 86.295 7.9799
87.872803 86.300 7.9992
88.509560 86.307 8.0080
89.150940 86.314 8.0032
89.796967 86.321 7.9860
90.447670 86.329 7.9565
91.103088 86.337 7.9151
91.763260 86.343 7.8612
92.428215 86.348 7.7991
93.097992 86.351 7.7326
93.772614 86.353 7.6631
94.452133 86.354 7.5934
95.136566 86.353 7.5231
95.825966 86.351 7.4523
96.520363 86.348 7.3831
97.219788 86.343 7.3171
97.924286 86.337 7.2571
98.633881 86.329 7.2067
99.348625 86.321 7.1651
100.068542 86.313 7.1329
100.793686 86.305 7.1100
101.524078 86.297 7.0968
102.259766 86.289 7.0920
103.000778 86.282 7.0961
103.747162 86.277 7.1050
104.498962 86.274 7.1150
105.256203 86.273 7.1250
106.018929 86.272 7.1325
106.787186 86.271 7.1380
107.561012 86.271 7.1406
108.340446 86.271 7.1410
109.125526 86.271 7.1396
109.916290 86.271 7.1370
110.712791 86.271 7.1339
111.515060 86.271 7.1300
112.323143 86.271 7.1251
113.137085 86.271 7.1200
113.956924 86.271 7.1155
114.782700 86.271 7.1110
115.614464 86.271 7.1060
116.452255 86.271 7.1010
117.296112 86.271 7.0964
118.146095 86.271 7.0920
119.002228 86.271 7.0879
119.864563 86.271 7.0840
120.733154 86.271 7.0803
121.608040 86.271 7.0770
122.489258 86.271 7.0744
123.376869 86.271 7.0720
124.270905 86.271 7.0694
125.171425 86.271 7.0670
126.078468 86.271 7.0653
126.992081 86.271 7.0640
127.912323 86.271 7.0633
128.839233 86.271 7.0630
129.772842 86.271 7.0628
130.713242 86.271 7.0630
131.660431 86.271 7.0637
132.614502 86.271 7.0650
133.575485 86.271 7.0667
134.543427 86.271 7.0690
135.518387 86.271 7.0717
136.500412 86.271 7.0750
137.489548 86.271 7.0788
138.485855 86.271 7.0830
139.489380 86.271 7.0872
140.500168 86.271 7.0920
141.518295 86.271 7.0977
142.543793 86.271 7.1040
143.576721 86.271 7.1107
144.617142 86.271 7.1180
145.665100 86.271 7.1262
146.720642 86.271 7.1350
147.783844 86.271 7.1437
148.854752 86.271 7.1530
149.933411 86.271 7.1631
151.019897 86.271 7.1740
152.114243 86.271 7.1857
153.216522 86.271 7.1980
154.326797 86.271 7.2106
155.445114 86.271 7.2240
156.571533 86.271 7.2386
157.706116 86.271 7.2540
158.848923 86.271 7.2696
160.000000 86.271 7.2860
161.159424 86.271 7.3035
162.327255 86.271 7.3220
163.503540 86.271 7.3415
164.688354 86.271 7.3620
165.881760 86.271 7.3834
167.083801 86.271 7.4059
168.294571 86.271 7.4297
169.514099 86.271 7.4549
170.742462 86.271 7.4816
171.979736 86.271 7.5099
173.225967 86.271 7.5401
174.481232 86.271 7.5729
175.745605 86.271 7.6092
177.019119 86.271 7.6489
178.301880 86.272 7.6923
179.593933 86.273 7.7389
180.895340 86.275 7.7893
182.206177 86.278 7.8409
183.526520 86.283 7.8922
184.856430 86.290 7.9399
186.195984 86.298 7.9799
187.545227 86.306 8.0129
188.904266 86.314 8.0382
190.273132 86.322 8.0560
191.651932 86.330 8.0659
193.040726 86.337 8.0690
194.439575 86.343 8.0645
195.848572 86.348 8.0570
197.267761 86.351 8.0506
198.697250 86.353 8.0460
200.137085 86.354 8.0452
201.587372 86.355 8.0480
203.048157 86.355 8.0547
204.519531 86.355 8.0650
206.001556 86.355 8.0790
207.494324 86.355 8.0960
208.997925 86.355 8.1148
210.512405 86.355 8.1359
212.037857 86.355 8.1594
213.574371 86.355 8.1849
215.122025 86.355 8.2121
216.680893 86.355 8.2409
218.251053 86.355 8.2715
219.832581 86.355 8.3039
221.425583 86.355 8.3380
223.030121 86.355 8.3739
224.646286 86.355 8.4118
226.274170 86.355 8.4519
227.913849 86.355 8.4942
229.565399 86.355 8.5389
231.228928 86.355 8.5860
232.904510 86.355 8.6358
234.592224 86.355 8.6885
236.292191 86.355 8.7448
238.004456 86.355 8.8055
239.729126 86.355 8.8708
241.466309 86.356 8.9413
243.216080 86.357 9.0168
244.978516 86.358 9.0980
246.753738 86.361 9.1827
248.541809 86.366 9.2699
250.342850 86.372 9.3568
252.156937 86.380 9.4398
253.984161 86.388 9.5198
255.824646 86.397 9.5964
257.678467 86.406 9.6698
259.545685 86.416 9.7404
261.426483 86.427 9.8068
263.320862 86.439 9.8675
265.229004 86.450 9.9238
267.150970 86.460 9.9763
269.086853 86.470 10.0269
271.036774 86.480 10.0779
273.000824 86.490 10.1288
274.979095 86.500 10.1802
276.971710 86.511 10.2308
278.978760 86.523 10.2797
281.000336 86.535 10.3269
283.036591 86.546 10.3716
285.087585 86.558 10.4149
287.153442 86.570 10.4582
289.234283 86.583 10.4989
291.330200 86.597 10.5352
293.441284 86.612 10.5659
295.567688 86.626 10.5883
297.709503 86.639 10.6060
299.866821 86.651 10.6218
302.039795 86.663 10.6360
304.228485 86.675 10.6495
306.433044 86.687 10.6620
308.653595 86.699 10.6729
310.890228 86.710 10.6830
313.143066 86.721 10.6925
315.412231 86.732 10.7020
317.697845 86.743 10.7132
320.000000 86.754 10.7230
322.318848 86.766 10.7292
324.654510 86.779 10.7310
327.007080 86.791 10.7256
329.376709 86.803 10.7160
331.763519 86.813 10.7041
334.167603 86.823 10.6910
336.589142 86.832 10.6785
339.028198 86.840 10.6670
341.484924 86.847 10.6566
343.959473 86.854 10.6500
346.451935 86.859 10.6509
348.962463 86.865 10.6570
351.491211 86.872 10.6683
354.038239 86.881 10.6820
356.603760 86.890 10.6955
359.187866 86.901 10.7070
361.790680 86.913 10.7145
364.412354 86.926 10.7150
367.053040 86.940 10.7043
369.712860 86.955 10.6831
372.391968 86.968 10.6494
375.090454 86.980 10.6071
377.808533 86.990 10.5591
380.546265 86.999 10.5062
383.303864 87.007 10.4490
386.081451 87.013 10.3902
388.879150 87.017 10.3321
391.697144 87.020 10.2762
394.535522 87.022 10.2247
397.394501 87.023 10.1771
400.274170 87.023 10.1338
403.174744 87.023 10.0941
406.096313 87.023 10.0580
409.039062 87.023 10.0241
412.003113 87.023 9.9912
414.988647 87.023 9.9581
417.995850 87.023 9.9236
421.024811 87.023 9.8871
424.075714 87.022 9.8482
427.148743 87.021 9.8061
430.244049 87.020 9.7595
433.361786 87.017 9.7102
436.502106 87.012 9.6587
439.665161 87.006 9.6072
442.851166 86.998 9.5581
446.060242 86.988 9.5111
449.292572 86.977 9.4659
452.548340 86.965 9.4241
455.827698 86.951 9.3857
459.130798 86.934 9.3551
462.457855 86.914 9.3374
465.809021 86.893 9.3310
469.184448 86.872 9.3360
472.584381 86.850 9.3529
476.008911 86.826 9.3805
479.458252 86.800 9.4238
482.932617 86.772 9.4885
486.432159 86.744 9.5727
489.957031 86.718 9.6773
493.507477 86.692 9.7996
497.083618 86.666 9.9360
500.685699 86.640 10.0895
504.313873 86.615 10.2623
507.968323 86.590 10.4524
511.649292 86.568 10.6584
515.356934 86.547 10.8802
519.091370 86.527 11.1174
522.852966 86.509 11.3701
526.641724 86.493 11.6393
530.458008 86.479 11.9220
534.301941 86.469 12.2158
538.173706 86.461 12.5210
542.073547 86.455 12.8386
546.001648 86.452 13.1649
549.958191 86.454 13.4977
553.943420 86.460 13.8329
557.957520 86.469 14.1650
562.000671 86.481 14.4959
566.073181 86.495 14.8270
570.175171 86.513 15.1539
574.306885 86.535 15.4727
578.468567 86.560 15.7830
582.660400 86.585 16.0824
586.882568 86.613 16.3730
591.135376 86.643 16.6574
595.419006 86.676 16.9311
599.733643 86.711 17.1894
604.079590 86.748 17.4352
608.456970 86.784 17.6696
612.866089 86.821 17.8923
617.307190 86.861 18.1046
621.780457 86.902 18.3024
626.286133 86.945 18.4803
630.824463 86.987 18.6435
635.395691 87.026 18.7947
640.000000 87.065 18.9355
644.637695 87.105 19.0685
649.309021 87.145 19.1936
654.014160 87.183 19.3108
658.753418 87.221 19.4226
663.527039 87.257 19.5316
668.335205 87.294 19.6376
673.178284 87.331 19.7422
678.056396 87.369 19.8427
682.969849 87.407 19.9369
687.918945 87.444 20.0257
692.903870 87.481 20.1084
697.924927 87.517 20.1877
702.982422 87.552 20.2656
708.076477 87.587 20.3437
713.207520 87.621 20.4240
718.375732 87.654 20.5077
723.581360 87.688 20.5970
728.824707 87.722 20.6907
734.106079 87.757 20.7886
739.425720 87.794 20.8896
744.783936 87.832 20.9941
750.180908 87.872 21.0976
755.617065 87.915 21.1973
761.092529 87.960 21.2897
766.607727 88.007 21.3700
772.162903 88.055 21.4388
777.758301 88.103 21.4946
783.394287 88.152 21.5379
789.071045 88.201 21.5678
794.789001 88.251 21.5860
800.548340 88.299 21.5931
806.349487 88.347 21.5910
812.192627 88.394 21.5814
818.078125 88.441 21.5661
824.006226 88.487 21.5479
829.977295 88.533 21.5251
835.991699 88.580 21.4973
842.049622 88.627 21.4631
848.151428 88.674 21.4208
854.297485 88.721 21.3712
860.488098 88.769 21.3157
866.723572 88.817 21.2513
873.004211 88.866 21.1746
879.330322 88.914 21.0873
885.702332 88.961 20.9897
892.120483 89.007 20.8824
898.585144 89.053 20.7671
905.096680 89.099 20.6415
911.655396 89.145 20.5035
918.261597 89.191 20.3536
924.915710 89.235 20.1917
931.618042 89.278 20.0167
938.368896 89.321 19.8266
945.168762 89.362 19.6238
952.017822 89.399 19.4085
958.916504 89.433 19.1849
965.865234 89.465 18.9577
972.864319 89.495 18.7259
979.914062 89.522 18.4886
987.014954 89.546 18.2499
994.167236 89.567 18.0136
1001.371399 89.586 17.7788
1008.627747 89.604 17.5465
1015.936646 89.620 17.3150
1023.298584 89.634 17.0816
1030.713867 89.644 16.8507
1038.182739 89.650 16.6249
1045.705933 89.653 16.4079
1053.283447 89.653 16.2042
1060.916016 89.651 16.0148
1068.603882 89.646 15.8408
1076.347412 89.638 15.6866
1084.147095 89.627 15.5561
