* Measurement data measured by REW V5.20.13
* Source: C:\Users\kurin\Desktop\Targets and Curves\Resolve\Img\Files\lcd-r_SPL.txt
* Format: Comma/Tab/Space delimited data
* Dated: Aug 14, 2023 5:44:20 PM
* REW Settings:
*  C-weighting compensation: Off
*  Target level: 75.0 dB
* Note: ; Measurement imported from C:\Users\kurin\Desktop\Targets and Curves\Resolve\Img\Files\lcd-r_SPL.txt Format: Comma/Tab/Space delimited data 623 values loaded, 5 Hz to 39,792 Hz log spaced 
* Measurement: lcd-r_SPL
* Smoothing: 1/48 octave
* Frequency Step: 1/96 octave
* Start Frequency: 5.000 Hz
*
* Freq(Hz) SPL(dB) Phase(degrees)
5.000000 80.127 27.6510
5.036232 80.136 27.6462
5.072727 80.146 27.6410
5.109486 80.157 27.6344
5.146511 80.170 27.6270
5.183805 80.186 27.6187
5.221369 80.203 27.6100
5.259205 80.221 27.6016
5.297316 80.239 27.5930
5.335702 80.259 27.5841
5.374367 80.279 27.5750
5.413311 80.299 27.5660
5.452538 80.319 27.5570
5.492050 80.339 27.5480
5.531847 80.359 27.5390
5.571934 80.379 27.5301
5.612310 80.399 27.5210
5.652979 80.419 27.5115
5.693943 80.439 27.5020
5.735204 80.459 27.4930
5.776763 80.479 27.4840
5.818624 80.499 27.4746
5.860788 80.519 27.4650
5.903258 80.539 27.4555
5.946035 80.559 27.4460
5.989123 80.579 27.4365
6.032523 80.600 27.4270
6.076237 80.620 27.4176
6.120268 80.640 27.4080
6.164618 80.660 27.3981
6.209289 80.680 27.3880
6.254284 80.700 27.3780
6.299605 80.720 27.3680
6.345255 80.740 27.3581
6.391235 80.760 27.3480
6.437549 80.780 27.3375
6.484198 80.800 27.3270
6.531185 80.820 27.3170
6.578513 80.840 27.3070
6.626183 80.860 27.2966
6.674199 80.880 27.2860
6.722563 80.900 27.2750
6.771278 80.920 27.2640
6.820345 80.940 27.2535
6.869768 80.960 27.2430
6.919549 80.980 27.2321
6.969691 81.000 27.2210
7.020196 81.020 27.2100
7.071068 81.040 27.1990
7.122308 81.060 27.1881
7.173919 81.080 27.1770
7.225904 81.100 27.1656
7.278266 81.120 27.1540
7.331007 81.140 27.1426
7.384131 81.160 27.1310
7.437639 81.180 27.1190
7.491535 81.200 27.1070
7.545822 81.220 27.0955
7.600502 81.241 27.0840
7.655579 81.261 27.0721
7.711054 81.281 27.0600
7.766932 81.301 27.0481
7.823214 81.321 27.0360
7.879904 81.341 27.0236
7.937005 81.361 27.0110
7.994520 81.381 26.9985
8.052452 81.401 26.9860
8.110803 81.421 26.9736
8.169578 81.441 26.9610
8.228777 81.461 26.9481
8.288406 81.481 26.9350
8.348468 81.501 26.9220
8.408964 81.521 26.9090
8.469899 81.541 26.8961
8.531276 81.561 26.8830
8.593097 81.581 26.8696
8.655366 81.601 26.8560
8.718086 81.621 26.8425
8.781260 81.641 26.8290
8.844893 81.661 26.8156
8.908987 81.681 26.8020
8.973545 81.701 26.7881
9.038571 81.721 26.7740
9.104069 81.741 26.7600
9.170040 81.761 26.7460
9.236490 81.781 26.7321
9.303422 81.801 26.7180
9.370838 81.821 26.7036
9.438744 81.841 26.6890
9.507140 81.861 26.6746
9.576033 81.882 26.6600
9.645425 81.902 26.6451
9.715320 81.922 26.6300
9.785721 81.942 26.6151
9.856632 81.962 26.6000
9.928058 81.982 26.5845
10.000000 82.002 26.5690
10.072464 82.022 26.5541
10.145453 82.042 26.5390
10.218971 82.062 26.5231
10.293022 82.082 26.5070
10.367610 82.102 26.4915
10.442738 82.122 26.4760
10.518411 82.142 26.4601
10.594631 82.162 26.4440
10.671404 82.182 26.4276
10.748734 82.202 26.4110
10.826623 82.222 26.3945
10.905077 82.242 26.3780
10.984100 82.262 26.3616
11.063695 82.282 26.3450
11.143867 82.302 26.3281
11.224621 82.322 26.3110
11.305959 82.342 26.2941
11.387886 82.362 26.2770
11.470407 82.382 26.2596
11.553527 82.402 26.2420
11.637249 82.422 26.2246
11.721577 82.442 26.2070
11.806517 82.462 26.1891
11.892071 82.482 26.1710
11.978246 82.502 26.1530
12.065045 82.522 26.1350
12.152473 82.543 26.1171
12.240536 82.563 26.0990
12.329235 82.583 26.0806
12.418578 82.603 26.0620
12.508568 82.623 26.0436
12.599211 82.643 26.0250
12.690510 82.663 26.0061
12.782471 82.683 25.9870
12.875097 82.703 25.9675
12.968395 82.723 25.9480
13.062370 82.743 25.9290
13.157025 82.763 25.9100
13.252366 82.783 25.8906
13.348398 82.803 25.8710
13.445127 82.823 25.8511
13.542556 82.843 25.8310
13.640691 82.863 25.8111
13.739536 82.883 25.7910
13.839099 82.903 25.7705
13.939383 82.923 25.7500
14.040393 82.943 25.7301
14.142136 82.963 25.7100
14.244616 82.983 25.6891
14.347837 83.003 25.6680
14.451808 83.023 25.6470
14.556532 83.043 25.6260
14.662014 83.063 25.6051
14.768262 83.083 25.5840
14.875278 83.103 25.5626
14.983070 83.123 25.5410
15.091644 83.143 25.5195
15.201005 83.163 25.4980
15.311157 83.183 25.4766
15.422109 83.204 25.4550
15.533863 83.224 25.4331
15.646428 83.244 25.4110
15.759809 83.264 25.3885
15.874010 83.284 25.3660
15.989040 83.304 25.3440
16.104904 83.324 25.3220
16.221605 83.344 25.2996
16.339155 83.364 25.2770
16.457554 83.384 25.2545
16.576813 83.404 25.2320
16.696936 83.424 25.2095
16.817928 83.444 25.1870
16.939798 83.464 25.1645
17.062551 83.484 25.1420
17.186193 83.504 25.1195
17.310732 83.524 25.0970
17.436172 83.544 25.0745
17.562521 83.564 25.0520
17.689787 83.584 25.0295
17.817974 83.604 25.0070
17.947090 83.624 24.9849
18.077143 83.644 24.9630
18.208138 83.664 24.9414
18.340080 83.684 24.9200
18.472980 83.704 24.8988
18.606844 83.724 24.8780
18.741676 83.744 24.8581
18.877487 83.764 24.8390
19.014280 83.784 24.8209
19.152065 83.804 24.8040
19.290850 83.825 24.7889
19.430639 83.846 24.7750
19.571442 83.867 24.7626
19.713264 83.888 24.7500
19.856115 83.911 24.7363
20.000000 83.934 24.7200
20.144928 83.957 24.6995
20.290907 83.981 24.6750
20.437943 84.005 24.6463
20.586044 84.028 24.6140
20.735220 84.051 24.5787
20.885475 84.074 24.5410
21.036821 84.096 24.5024
21.189262 84.118 24.4621
21.342808 84.140 24.4193
21.497467 84.161 24.3761
21.653246 84.180 24.3329
21.810154 84.199 24.2930
21.968201 84.217 24.2616
22.127390 84.235 24.2340
22.287735 84.255 24.2072
22.449242 84.276 24.1820
22.611917 84.294 24.1575
22.775772 84.312 24.1360
22.940815 84.331 24.1210
23.107054 84.351 24.1090
23.274498 84.371 24.0980
23.443153 84.392 24.0880
23.613033 84.413 24.0777
23.784142 84.433 24.0700
23.956491 84.453 24.0672
24.130091 84.473 24.0700
24.304947 84.494 24.0797
24.481071 84.515 24.0970
24.658470 84.537 24.1233
24.837156 84.560 24.1569
25.017136 84.587 24.1987
25.198421 84.617 24.2420
25.381020 84.650 24.2813
25.564941 84.687 24.3140
25.750195 84.726 24.3372
25.936790 84.768 24.3460
26.124741 84.814 24.3365
26.314051 84.863 24.3021
26.504732 84.914 24.2337
26.696796 84.964 24.1351
26.890253 85.011 24.0059
27.085112 85.056 23.8502
27.281382 85.099 23.6706
27.479073 85.138 23.4723
27.678198 85.172 23.2590
27.878765 85.201 23.0373
28.080786 85.227 22.8149
28.284271 85.249 22.5923
28.489231 85.268 22.3712
28.695675 85.284 22.1553
28.903616 85.295 21.9490
29.113064 85.303 21.7523
29.324028 85.311 21.5663
29.536524 85.316 21.3922
29.750557 85.317 21.2290
29.966141 85.316 21.0841
30.183289 85.312 20.9647
30.402010 85.307 20.8701
30.622314 85.302 20.8025
30.844217 85.297 20.7600
31.067726 85.293 20.7427
31.292856 85.291 20.7470
31.519617 85.292 20.7706
31.748020 85.296 20.8099
31.978081 85.302 20.8607
32.209808 85.311 20.9219
32.443211 85.322 20.9912
32.678310 85.336 21.0679
32.915108 85.352 21.1499
33.153625 85.371 21.2399
33.393871 85.391 21.3414
33.635857 85.415 21.4498
33.879597 85.444 21.5637
34.125103 85.478 21.6768
34.372387 85.516 21.7833
34.621464 85.559 21.8809
34.872345 85.605 21.9670
35.125042 85.656 22.0369
35.379574 85.711 22.0853
35.635948 85.770 22.1110
35.894180 85.830 22.1108
36.154285 85.893 22.0851
36.416275 85.958 22.0337
36.680161 86.025 21.9541
36.945961 86.093 21.8447
37.213688 86.162 21.7032
37.483353 86.232 21.5282
37.754974 86.303 21.3164
38.028561 86.374 21.0641
38.304131 86.443 20.7704
38.581699 86.510 20.4311
38.861279 86.573 20.0526
39.142883 86.630 19.6369
39.426529 86.681 19.1926
39.712231 86.725 18.7279
40.000000 86.762 18.2457
40.289856 86.795 17.7486
40.581814 86.820 17.2457
40.875885 86.835 16.7439
41.172089 86.843 16.2527
41.470440 86.845 15.7861
41.770950 86.844 15.3387
42.073643 86.841 14.9104
42.378525 86.836 14.4996
42.685616 86.827 14.1038
42.994934 86.816 13.7255
43.306492 86.803 13.3679
43.620308 86.788 13.0265
43.936401 86.774 12.6983
44.254780 86.759 12.3815
44.575470 86.743 12.0717
44.898483 86.725 11.7735
45.223835 86.704 11.4893
45.551544 86.681 11.2204
45.881630 86.658 10.9694
46.214108 86.635 10.7344
46.548996 86.611 10.5141
46.886307 86.586 10.3093
47.226067 86.561 10.1205
47.568283 86.536 9.9463
47.912983 86.512 9.7864
48.260181 86.489 9.6382
48.609894 86.467 9.4995
48.962143 86.445 9.3692
49.316940 86.424 9.2451
49.674313 86.404 9.1282
50.034271 86.383 9.0184
50.396843 86.363 8.9162
50.762039 86.343 8.8215
51.129883 86.323 8.7351
51.500389 86.302 8.6574
51.873581 86.282 8.5891
52.249481 86.263 8.5327
52.628101 86.246 8.4841
53.009464 86.231 8.4394
53.393593 86.216 8.4001
53.780506 86.201 8.3675
54.170223 86.188 8.3380
54.562763 86.179 8.3101
54.958145 86.171 8.2791
55.356396 86.164 8.2378
55.757530 86.156 8.1921
56.161572 86.146 8.1448
56.568542 86.136 8.0981
56.978462 86.126 8.0551
57.391350 86.116 8.0151
57.807232 86.106 7.9773
58.226128 86.096 7.9441
58.648056 86.085 7.9173
59.073048 86.074 7.8970
59.501114 86.065 7.8862
59.932281 86.057 7.8780
60.366577 86.052 7.8661
60.804020 86.048 7.8520
61.244629 86.042 7.8336
61.688435 86.035 7.8150
62.135452 86.029 7.8011
62.585712 86.024 7.7880
63.039234 86.020 7.7720
63.496040 86.015 7.7570
63.956161 86.009 7.7454
64.419617 86.002 7.7380
64.886421 85.997 7.7380
65.356621 85.993 7.7410
65.830215 85.991 7.7438
66.307251 85.989 7.7460
66.787743 85.988 7.7461
67.271713 85.987 7.7440
67.759193 85.987 7.7393
68.250206 85.987 7.7320
68.744774 85.987 7.7220
69.242928 85.987 7.7100
69.744690 85.987 7.6970
70.250084 85.987 7.6830
70.759148 85.987 7.6683
71.271896 85.987 7.6530
71.788361 85.987 7.6372
72.308571 85.987 7.6210
72.832550 85.987 7.6046
73.360321 85.987 7.5880
73.891922 85.987 7.5716
74.427376 85.987 7.5550
74.966705 85.987 7.5381
75.509949 85.987 7.5210
76.057121 85.987 7.5040
76.608261 85.987 7.4870
77.163399 85.987 7.4705
77.722557 85.987 7.4540
78.285767 85.987 7.4375
78.853058 85.987 7.4210
79.424461 85.987 7.4048
80.000000 85.987 7.3890
80.579712 85.987 7.3739
81.163628 85.987 7.3590
81.751770 85.987 7.3439
82.344177 85.987 7.3290
82.940880 85.987 7.3148
83.541901 85.987 7.3010
84.147285 85.987 7.2878
84.757050 85.987 7.2750
85.371231 85.987 7.2623
85.989868 85.987 7.2500
86.612984 85.987 7.2383
87.240616 85.987 7.2270
87.872803 85.987 7.2163
88.509560 85.987 7.2060
89.150940 85.987 7.1962
89.796967 85.987 7.1870
90.447670 85.987 7.1787
91.103088 85.987 7.1710
91.763260 85.987 7.1636
92.428215 85.987 7.1570
93.097992 85.987 7.1516
93.772614 85.987 7.1470
94.452133 85.987 7.1430
95.136566 85.987 7.1400
95.825966 85.987 7.1384
96.520363 85.987 7.1380
97.219788 85.987 7.1390
97.924286 85.988 7.1410
98.633881 85.988 7.1438
99.348625 85.989 7.1470
100.068542 85.990 7.1502
100.793686 85.992 7.1530
101.524078 85.993 7.1537
102.259766 85.994 7.1550
103.000778 85.994 7.1586
103.747162 85.994 7.1650
104.498962 85.994 7.1752
105.256203 85.995 7.1890
106.018929 85.995 7.2062
106.787186 85.996 7.2270
107.561012 85.998 7.2531
108.340446 86.002 7.2800
109.125526 86.007 7.3041
109.916290 86.014 7.3240
110.712791 86.021 7.3364
111.515060 86.029 7.3420
112.323143 86.037 7.3400
113.137085 86.044 7.3310
113.956924 86.051 7.3142
114.782700 86.057 7.2931
115.614464 86.061 7.2699
116.452255 86.064 7.2470
117.296112 86.067 7.2276
118.146095 86.069 7.2110
119.002228 86.070 7.1983
119.864563 86.071 7.1880
120.733154 86.073 7.1798
121.608040 86.076 7.1720
122.489258 86.078 7.1620
123.376869 86.079 7.1530
124.270905 86.080 7.1482
125.171425 86.081 7.1460
126.078468 86.082 7.1462
126.992081 86.084 7.1480
127.912323 86.085 7.1501
128.839233 86.087 7.1530
129.772842 86.089 7.1567
130.713242 86.091 7.1610
131.660431 86.092 7.1646
132.614502 86.093 7.1700
133.575485 86.093 7.1788
134.543427 86.094 7.1920
135.518387 86.095 7.2108
136.500412 86.096 7.2349
137.489548 86.097 7.2646
138.485855 86.099 7.2989
139.489380 86.103 7.3383
140.500168 86.108 7.3789
141.518295 86.116 7.4185
142.543793 86.125 7.4529
143.576721 86.136 7.4785
144.617142 86.149 7.4920
145.665100 86.162 7.4877
146.720642 86.175 7.4701
147.783844 86.185 7.4405
148.854752 86.194 7.4021
149.933411 86.202 7.3575
151.019897 86.208 7.3091
152.114243 86.211 7.2581
153.216522 86.211 7.2111
154.326797 86.208 7.1746
155.445114 86.204 7.1500
156.571533 86.199 7.1423
157.706116 86.195 7.1480
158.848923 86.192 7.1668
160.000000 86.190 7.1939
161.159424 86.191 7.2254
162.327255 86.193 7.2589
163.503540 86.196 7.2921
164.688354 86.201 7.3219
165.881760 86.207 7.3443
167.083801 86.213 7.3610
168.294571 86.218 7.3707
169.514099 86.223 7.3780
170.742462 86.226 7.3863
171.979736 86.228 7.3980
173.225967 86.230 7.4166
174.481232 86.232 7.4419
175.745605 86.233 7.4755
177.019119 86.236 7.5149
178.301880 86.241 7.5593
179.593933 86.248 7.6049
180.895340 86.256 7.6478
182.206177 86.266 7.6869
183.526520 86.276 7.7200
184.856430 86.287 7.7460
186.195984 86.300 7.7635
187.545227 86.313 7.7710
188.904266 86.326 7.7642
190.273132 86.337 7.7500
191.651932 86.344 7.7333
193.040726 86.350 7.7170
194.439575 86.356 7.7067
195.848572 86.362 7.7000
197.267761 86.367 7.6951
198.697250 86.371 7.6960
200.137085 86.374 7.7063
201.587372 86.377 7.7249
203.048157 86.382 7.7545
204.519531 86.389 7.7879
206.001556 86.399 7.8202
207.494324 86.411 7.8479
208.997925 86.424 7.8661
210.512405 86.438 7.8740
212.037857 86.452 7.8681
213.574371 86.466 7.8520
215.122025 86.478 7.8269
216.680893 86.488 7.7971
218.251053 86.497 7.7664
219.832581 86.504 7.7371
221.425583 86.509 7.7121
223.030121 86.514 7.6930
224.646286 86.518 7.6822
226.274170 86.522 7.6800
227.913849 86.526 7.6893
229.565399 86.532 7.7050
231.228928 86.541 7.7246
232.904510 86.551 7.7430
234.592224 86.563 7.7530
236.292191 86.575 7.7580
238.004456 86.587 7.7590
239.729126 86.600 7.7550
241.466309 86.614 7.7462
243.216080 86.628 7.7301
244.978516 86.642 7.7031
246.753738 86.656 7.6691
248.541809 86.668 7.6299
250.342850 86.679 7.5881
252.156937 86.689 7.5469
253.984161 86.699 7.5061
255.824646 86.708 7.4665
257.678467 86.717 7.4291
259.545685 86.725 7.3969
261.426483 86.735 7.3651
263.320862 86.748 7.3304
265.229004 86.761 7.2911
267.150970 86.773 7.2439
269.086853 86.785 7.1902
271.036774 86.798 7.1315
273.000824 86.811 7.0642
274.979095 86.825 6.9836
276.971710 86.837 6.8943
278.978760 86.845 6.7976
281.000336 86.852 6.6983
283.036591 86.858 6.6026
285.087585 86.863 6.5073
287.153442 86.868 6.4107
289.234283 86.872 6.3143
291.330200 86.874 6.2184
293.441284 86.875 6.1243
295.567688 86.876 6.0335
297.709503 86.877 5.9442
299.866821 86.877 5.8554
302.039795 86.877 5.7663
304.228485 86.877 5.6761
306.433044 86.877 5.5833
308.653595 86.876 5.4860
310.890228 86.875 5.3843
313.143066 86.872 5.2772
315.412231 86.868 5.1663
317.697845 86.861 5.0511
320.000000 86.852 4.9373
322.318848 86.839 4.8299
324.654510 86.824 4.7313
327.007080 86.807 4.6451
329.376709 86.789 4.5722
331.763519 86.769 4.5143
334.167603 86.747 4.4731
336.589142 86.725 4.4529
339.028198 86.704 4.4480
341.484924 86.686 4.4549
343.959473 86.669 4.4709
346.451935 86.652 4.4916
348.962463 86.635 4.5189
351.491211 86.618 4.5536
354.038239 86.602 4.5949
356.603760 86.587 4.6410
359.187866 86.571 4.6948
361.790680 86.554 4.7587
364.412354 86.538 4.8328
367.053040 86.524 4.9196
369.712860 86.512 5.0147
372.391968 86.501 5.1148
375.090454 86.492 5.2187
377.808533 86.485 5.3256
380.546265 86.479 5.4317
383.303864 86.476 5.5333
386.081451 86.474 5.6287
388.879150 86.473 5.7146
391.697144 86.472 5.7928
394.535522 86.470 5.8635
397.394501 86.467 5.9288
400.274170 86.463 5.9889
403.174744 86.457 6.0498
406.096313 86.447 6.1162
409.039062 86.436 6.1917
412.003113 86.424 6.2824
414.988647 86.411 6.3866
417.995850 86.398 6.5035
421.024811 86.385 6.6375
424.075714 86.370 6.7936
427.148743 86.356 6.9694
430.244049 86.346 7.1663
433.361786 86.339 7.3783
436.502106 86.334 7.5995
439.665161 86.331 7.8303
442.851166 86.331 8.0709
446.060242 86.334 8.3162
449.292572 86.342 8.5613
452.548340 86.353 8.8052
455.827698 86.364 9.0447
459.130798 86.377 9.2822
462.457855 86.392 9.5186
465.809021 86.408 9.7552
469.184448 86.425 9.9931
472.584381 86.443 10.2352
476.008911 86.463 10.4861
479.458252 86.486 10.7422
482.932617 86.513 11.0042
486.432159 86.545 11.2642
489.957031 86.582 11.5157
493.507477 86.624 11.7553
497.083618 86.668 11.9778
500.685699 86.716 12.1814
504.313873 86.767 12.3639
507.968323 86.820 12.5205
511.649292 86.876 12.6438
515.356934 86.933 12.7397
519.091370 86.986 12.8092
522.852966 87.037 12.8599
526.641724 87.088 12.9011
530.458008 87.138 12.9289
534.301941 87.189 12.9409
538.173706 87.239 12.9410
542.073547 87.286 12.9315
546.001648 87.333 12.9151
549.958191 87.380 12.8971
553.943420 87.428 12.8711
557.957520 87.477 12.8322
562.000671 87.527 12.7802
566.073181 87.576 12.7133
570.175171 87.625 12.6313
574.306885 87.674 12.5339
578.468567 87.723 12.4194
582.660400 87.770 12.2848
586.882568 87.816 12.1346
591.135376 87.857 11.9699
595.419006 87.896 11.7976
599.733643 87.931 11.6250
604.079590 87.964 11.4516
608.456970 87.997 11.2790
612.866089 88.028 11.1086
617.307190 88.056 10.9430
621.780457 88.084 10.7795
626.286133 88.115 10.6184
630.824463 88.146 10.4536
635.395691 88.176 10.2773
640.000000 88.205 10.0946
644.637695 88.232 9.9075
649.309021 88.257 9.7177
654.014160 88.282 9.5275
658.753418 88.305 9.3366
663.527039 88.327 9.1450
668.335205 88.347 8.9546
673.178284 88.366 8.7679
678.056396 88.385 8.5846
682.969849 88.404 8.4058
687.918945 88.422 8.2306
692.903870 88.439 8.0589
697.924927 88.457 7.8896
702.982422 88.476 7.7211
708.076477 88.495 7.5546
713.207520 88.512 7.3900
718.375732 88.530 7.2296
723.581360 88.548 7.0775
728.824707 88.568 6.9285
734.106079 88.592 6.7806
739.425720 88.618 6.6276
744.783936 88.646 6.4636
750.180908 88.677 6.2857
755.617065 88.710 6.0902
761.092529 88.745 5.8728
766.607727 88.782 5.6286
772.162903 88.820 5.3550
777.758301 88.857 5.0474
783.394287 88.893 4.7072
789.071045 88.926 4.3339
794.789001 88.957 3.9295
800.548340 88.984 3.4956
806.349487 89.008 3.0327
812.192627 89.028 2.5413
818.078125 89.042 2.0229
824.006226 89.050 1.4778
829.977295 89.051 0.9111
835.991699 89.044 0.3255
842.049622 89.029 -0.2718
848.151428 89.004 -0.8769
854.297485 88.968 -1.4778
860.488098 88.920 -2.0638
866.723572 88.862 -2.6260
873.004211 88.795 -3.1552
879.330322 88.717 -3.6414
885.702332 88.630 -4.0750
892.120483 88.533 -4.4458
898.585144 88.429 -4.7417
905.096680 88.319 -4.9584
911.655396 88.206 -5.0878
918.261597 88.091 -5.1290
924.915710 87.977 -5.0770
931.618042 87.864 -4.9357
938.368896 87.757 -4.7038
945.168762 87.658 -4.3923
952.017822 87.570 -4.0071
958.916504 87.493 -3.5618
965.865234 87.429 -3.0666
972.864319 87.379 -2.5380
979.914062 87.346 -1.9898
987.014954 87.329 -1.4410
994.167236 87.328 -0.9114
1001.371399 87.341 -0.4137
1008.627747 87.365 0.0349
1015.936646 87.399 0.4285
1023.298584 87.440 0.7561
1030.713867 87.486 1.0153
1038.182739 87.535 1.1967
1045.705933 87.583 1.3097
1053.283447 87.626 1.3557
1060.916016 87.664 1.3491
1068.603882 87.695 1.3011
1076.347412 87.719 1.2234
1084.147095 87.734 1.1274
1092.003296 87.742 1.0243
1099.916382 87.743 0.9284
1107.886841 87.739 0.8413
