* Measurement data measured by REW V5.20.13
* Source: C:\Users\kurin\Desktop\Targets and Curves\Resolve\Img\Files\Goldplanar GL2000_SPL.txt
* Format: Comma/Tab/Space delimited data
* Dated: Aug 14, 2023 4:16:00 PM
* REW Settings:
*  C-weighting compensation: Off
*  Target level: 75.0 dB
* Note: ; Measurement imported from C:\Users\kurin\Desktop\Targets and Curves\Resolve\Img\Files\Goldplanar GL2000_SPL.txt Format: Comma/Tab/Space delimited data 623 values loaded, 5 Hz to 39,792 Hz log spaced 
* Measurement: Goldplanar GL2000_SPL
* Smoothing: 1/48 octave
* Frequency Step: 1/96 octave
* Start Frequency: 5.000 Hz
*
* Freq(Hz) SPL(dB) Phase(degrees)
5.000000 82.935 16.0170
5.036232 82.940 16.0141
5.072727 82.946 16.0110
5.109486 82.952 16.0077
5.146511 82.960 16.0040
5.183805 82.969 15.9997
5.221369 82.979 15.9950
5.259205 82.989 15.9901
5.297316 83.000 15.9850
5.335702 83.011 15.9800
5.374367 83.023 15.9750
5.413311 83.035 15.9699
5.452538 83.046 15.9650
5.492050 83.057 15.9605
5.531847 83.069 15.9560
5.571934 83.081 15.9511
5.612310 83.093 15.9460
5.652979 83.105 15.9410
5.693943 83.116 15.9360
5.735204 83.127 15.9310
5.776763 83.139 15.9260
5.818624 83.150 15.9211
5.860788 83.162 15.9160
5.903258 83.174 15.9105
5.946035 83.185 15.9050
5.989123 83.196 15.8999
6.032523 83.208 15.8950
6.076237 83.220 15.8901
6.120268 83.232 15.8850
6.164618 83.244 15.8796
6.209289 83.255 15.8740
6.254284 83.266 15.8685
6.299605 83.278 15.8630
6.345255 83.289 15.8575
6.391235 83.301 15.8520
6.437549 83.312 15.8465
6.484198 83.324 15.8410
6.531185 83.335 15.8356
6.578513 83.347 15.8300
6.626183 83.358 15.8240
6.674199 83.370 15.8180
6.722563 83.382 15.8125
6.771278 83.394 15.8070
6.820345 83.406 15.8011
6.869768 83.417 15.7950
6.919549 83.428 15.7890
6.969691 83.440 15.7830
7.020196 83.451 15.7770
7.071068 83.463 15.7710
7.122308 83.474 15.7650
7.173919 83.486 15.7590
7.225904 83.497 15.7530
7.278266 83.509 15.7470
7.331007 83.520 15.7411
7.384131 83.532 15.7350
7.437639 83.544 15.7286
7.491535 83.556 15.7220
7.545822 83.568 15.7155
7.600502 83.579 15.7090
7.655579 83.590 15.7025
7.711054 83.602 15.6960
7.766932 83.613 15.6895
7.823214 83.625 15.6830
7.879904 83.636 15.6766
7.937005 83.648 15.6700
7.994520 83.659 15.6630
8.052452 83.671 15.6560
8.110803 83.682 15.6495
8.169578 83.694 15.6430
8.228777 83.706 15.6361
8.288406 83.718 15.6290
8.348468 83.730 15.6220
8.408964 83.741 15.6150
8.469899 83.752 15.6081
8.531276 83.764 15.6010
8.593097 83.775 15.5935
8.655366 83.787 15.5860
8.718086 83.798 15.5790
8.781260 83.810 15.5720
8.844893 83.821 15.5646
8.908987 83.833 15.5570
8.973545 83.844 15.5495
9.038571 83.856 15.5420
9.104069 83.868 15.5346
9.170040 83.880 15.5270
9.236490 83.892 15.5190
9.303422 83.903 15.5110
9.370838 83.914 15.5035
9.438744 83.926 15.4960
9.507140 83.937 15.4881
9.576033 83.949 15.4800
9.645425 83.960 15.4720
9.715320 83.972 15.4640
9.785721 83.983 15.4561
9.856632 83.995 15.4480
9.928058 84.007 15.4395
10.000000 84.019 15.4310
10.072464 84.031 15.4230
10.145453 84.042 15.4150
10.218971 84.053 15.4066
10.293022 84.065 15.3980
10.367610 84.076 15.3896
10.442738 84.088 15.3810
10.518411 84.099 15.3720
10.594631 84.111 15.3630
10.671404 84.122 15.3545
10.748734 84.134 15.3460
10.826623 84.145 15.3371
10.905077 84.157 15.3280
10.984100 84.169 15.3190
11.063695 84.181 15.3100
11.143867 84.193 15.3010
11.224621 84.204 15.2920
11.305959 84.215 15.2831
11.387886 84.227 15.2740
11.470407 84.238 15.2645
11.553527 84.250 15.2550
11.637249 84.261 15.2460
11.721577 84.273 15.2370
11.806517 84.284 15.2276
11.892071 84.296 15.2180
11.978246 84.307 15.2080
12.065045 84.319 15.1980
12.152473 84.331 15.1885
12.240536 84.343 15.1790
12.329235 84.355 15.1690
12.418578 84.366 15.1590
12.508568 84.377 15.1495
12.599211 84.389 15.1400
12.690510 84.400 15.1301
12.782471 84.412 15.1200
12.875097 84.423 15.1095
12.968395 84.435 15.0990
13.062370 84.446 15.0890
13.157025 84.458 15.0790
13.252366 84.469 15.0685
13.348398 84.481 15.0580
13.445127 84.493 15.0480
13.542556 84.505 15.0380
13.640691 84.517 15.0276
13.739536 84.528 15.0170
13.839099 84.539 15.0065
13.939383 84.551 14.9960
14.040393 84.562 14.9855
14.142136 84.574 14.9750
14.244616 84.585 14.9646
14.347837 84.597 14.9540
14.451808 84.608 14.9430
14.556532 84.620 14.9320
14.662014 84.631 14.9215
14.768262 84.643 14.9110
14.875278 84.655 14.9000
14.983070 84.667 14.8890
15.091644 84.679 14.8784
15.201005 84.690 14.8680
15.311157 84.701 14.8576
15.422109 84.713 14.8470
15.533863 84.724 14.8360
15.646428 84.736 14.8250
15.759809 84.747 14.8144
15.874010 84.759 14.8040
15.989040 84.770 14.7934
16.104904 84.782 14.7830
16.221605 84.794 14.7729
16.339155 84.806 14.7630
16.457554 84.818 14.7530
16.576813 84.829 14.7430
16.696936 84.840 14.7329
16.817928 84.852 14.7230
16.939798 84.863 14.7139
17.062551 84.875 14.7050
17.186193 84.886 14.6959
17.310732 84.898 14.6870
17.436172 84.909 14.6788
17.562521 84.921 14.6710
17.689787 84.932 14.6633
17.817974 84.944 14.6560
17.947090 84.956 14.6496
18.077143 84.968 14.6440
18.208138 84.980 14.6391
18.340080 84.991 14.6350
18.472980 85.002 14.6314
18.606844 85.014 14.6290
18.741676 85.025 14.6286
18.877487 85.037 14.6300
19.014280 85.048 14.6326
19.152065 85.060 14.6380
19.290850 85.071 14.6474
19.430639 85.083 14.6610
19.571442 85.095 14.6795
19.713264 85.108 14.7030
19.856115 85.122 14.7326
20.000000 85.137 14.7660
20.144928 85.154 14.8029
20.290907 85.174 14.8380
20.437943 85.197 14.8662
20.586044 85.222 14.8860
20.735220 85.247 14.8942
20.885475 85.274 14.8900
21.036821 85.303 14.8725
21.189262 85.332 14.8391
21.342808 85.361 14.7858
21.497467 85.390 14.7161
21.653246 85.416 14.6316
21.810154 85.441 14.5341
21.968201 85.464 14.4256
22.127390 85.485 14.3081
22.287735 85.504 14.1834
22.449242 85.520 14.0551
22.611917 85.533 13.9269
22.775772 85.543 13.8002
22.940815 85.552 13.6763
23.107054 85.559 13.5592
23.274498 85.562 13.4524
23.443153 85.564 13.3571
23.613033 85.565 13.2759
23.784142 85.566 13.2081
23.956491 85.567 13.1541
24.130091 85.568 13.1130
24.304947 85.569 13.0848
24.481071 85.572 13.0670
24.658470 85.577 13.0581
24.837156 85.583 13.0550
25.017136 85.591 13.0544
25.198421 85.601 13.0550
25.381020 85.612 13.0547
25.564941 85.624 13.0530
25.750195 85.638 13.0497
25.936790 85.653 13.0420
26.124741 85.670 13.0263
26.314051 85.687 13.0050
26.504732 85.703 12.9792
26.696796 85.719 12.9490
26.890253 85.738 12.9169
27.085112 85.758 12.8780
27.281382 85.778 12.8284
27.479073 85.799 12.7681
27.678198 85.820 12.6958
27.878765 85.841 12.6111
28.080786 85.862 12.5129
28.284271 85.881 12.4022
28.489231 85.899 12.2780
28.695675 85.914 12.1452
28.903616 85.927 12.0074
29.113064 85.937 11.8672
29.324028 85.945 11.7271
29.536524 85.951 11.5902
29.750557 85.954 11.4605
29.966141 85.955 11.3381
30.183289 85.956 11.2253
30.402010 85.957 11.1201
30.622314 85.957 11.0220
30.844217 85.957 10.9301
31.067726 85.957 10.8437
31.292856 85.957 10.7621
31.519617 85.957 10.6849
31.748020 85.957 10.6111
31.978081 85.957 10.5398
32.209808 85.957 10.4711
32.443211 85.957 10.4046
32.678310 85.957 10.3401
32.915108 85.957 10.2772
33.153625 85.957 10.2151
33.393871 85.957 10.1527
33.635857 85.957 10.0901
33.879597 85.956 10.0266
34.125103 85.955 9.9631
34.372387 85.953 9.8992
34.621464 85.949 9.8381
34.872345 85.943 9.7811
35.125042 85.936 9.7331
35.379574 85.927 9.6993
35.635948 85.918 9.6800
35.894180 85.909 9.6772
36.154285 85.901 9.6900
36.416275 85.893 9.7191
36.680161 85.887 9.7619
36.945961 85.884 9.8187
37.213688 85.885 9.8809
37.483353 85.891 9.9406
37.754974 85.899 9.9959
38.028561 85.908 10.0429
38.304131 85.920 10.0800
38.581699 85.934 10.1052
38.861279 85.950 10.1160
39.142883 85.966 10.1078
39.426529 85.981 10.0850
39.712231 85.995 10.0501
40.000000 86.007 10.0051
40.289856 86.018 9.9527
40.581814 86.028 9.8941
40.875885 86.036 9.8302
41.172089 86.043 9.7641
41.470440 86.048 9.6988
41.770950 86.051 9.6361
42.073643 86.053 9.5791
42.378525 86.054 9.5271
42.685616 86.055 9.4805
42.994934 86.055 9.4391
43.306492 86.055 9.4028
43.620308 86.055 9.3710
43.936401 86.055 9.3434
44.254780 86.055 9.3190
44.575470 86.055 9.2971
44.898483 86.055 9.2780
45.223835 86.055 9.2621
45.551544 86.055 9.2490
45.881630 86.055 9.2387
46.214108 86.055 9.2310
46.548996 86.055 9.2257
46.886307 86.055 9.2230
47.226067 86.055 9.2229
47.568283 86.055 9.2260
47.912983 86.055 9.2327
48.260181 86.055 9.2430
48.609894 86.055 9.2562
48.962143 86.055 9.2740
49.316940 86.055 9.2980
49.674313 86.055 9.3279
50.034271 86.056 9.3639
50.396843 86.057 9.4059
50.762039 86.059 9.4550
51.129883 86.062 9.5089
51.500389 86.068 9.5671
51.873581 86.076 9.6259
52.249481 86.085 9.6810
52.628101 86.096 9.7329
53.009464 86.107 9.7810
53.393593 86.119 9.8249
53.780506 86.132 9.8648
54.170223 86.147 9.8980
54.562763 86.162 9.9203
54.958145 86.178 9.9360
55.356396 86.192 9.9474
55.757530 86.206 9.9550
56.161572 86.221 9.9607
56.568542 86.237 9.9620
56.978462 86.253 9.9567
57.391350 86.268 9.9460
57.807232 86.283 9.9297
58.226128 86.298 9.9100
58.648056 86.311 9.8901
59.073048 86.325 9.8680
59.501114 86.340 9.8434
59.932281 86.355 9.8151
60.366577 86.369 9.7805
60.804020 86.383 9.7431
61.244629 86.396 9.7053
61.688435 86.408 9.6671
62.135452 86.420 9.6299
62.585712 86.433 9.5911
63.039234 86.447 9.5476
63.496040 86.460 9.5011
63.956161 86.472 9.4514
64.419617 86.484 9.4001
64.886421 86.495 9.3490
65.356621 86.507 9.2971
65.830215 86.519 9.2449
66.307251 86.531 9.1901
66.787743 86.544 9.1307
67.271713 86.557 9.0661
67.759193 86.569 8.9946
68.250206 86.580 8.9181
68.744774 86.591 8.8383
69.242928 86.601 8.7542
69.744690 86.611 8.6651
70.250084 86.620 8.5722
70.759148 86.627 8.4751
71.271896 86.633 8.3772
71.788361 86.636 8.2809
72.308571 86.638 8.1882
72.832550 86.640 8.1024
73.360321 86.641 8.0221
73.891922 86.641 7.9471
74.427376 86.641 7.8771
74.966705 86.641 7.8121
75.509949 86.641 7.7511
76.057121 86.641 7.6932
76.608261 86.641 7.6381
77.163399 86.641 7.5850
77.722557 86.641 7.5341
78.285767 86.641 7.4856
78.853058 86.641 7.4391
79.424461 86.641 7.3943
80.000000 86.641 7.3511
80.579712 86.641 7.3093
81.163628 86.641 7.2691
81.751770 86.641 7.2305
82.344177 86.641 7.1931
82.940880 86.641 7.1564
83.541901 86.641 7.1211
84.147285 86.641 7.0875
84.757050 86.641 7.0551
85.371231 86.641 7.0231
85.989868 86.641 6.9921
86.612984 86.641 6.9626
87.240616 86.641 6.9341
87.872803 86.641 6.9061
88.509560 86.641 6.8791
89.150940 86.641 6.8536
89.796967 86.641 6.8291
90.447670 86.641 6.8046
91.103088 86.641 6.7810
91.763260 86.641 6.7591
92.428215 86.641 6.7380
93.097992 86.641 6.7172
93.772614 86.641 6.6970
94.452133 86.641 6.6781
95.136566 86.641 6.6600
95.825966 86.641 6.6427
96.520363 86.641 6.6260
97.219788 86.641 6.6101
97.924286 86.641 6.5950
98.633881 86.641 6.5811
99.348625 86.641 6.5680
100.068542 86.641 6.5557
100.793686 86.641 6.5440
101.524078 86.641 6.5332
102.259766 86.641 6.5230
103.000778 86.641 6.5136
103.747162 86.641 6.5050
104.498962 86.641 6.4975
105.256203 86.641 6.4910
106.018929 86.641 6.4855
106.787186 86.641 6.4810
107.561012 86.641 6.4775
108.340446 86.641 6.4750
109.125526 86.641 6.4734
109.916290 86.641 6.4730
110.712791 86.641 6.4743
111.515060 86.641 6.4770
112.323143 86.641 6.4808
113.137085 86.641 6.4860
113.956924 86.641 6.4925
114.782700 86.641 6.5010
115.614464 86.641 6.5119
116.452255 86.641 6.5260
117.296112 86.641 6.5441
118.146095 86.641 6.5659
119.002228 86.642 6.5915
119.864563 86.643 6.6209
120.733154 86.645 6.6556
121.608040 86.648 6.6919
122.489258 86.654 6.7280
123.376869 86.662 6.7599
124.270905 86.671 6.7831
125.171425 86.680 6.7980
126.078468 86.689 6.8034
126.992081 86.699 6.8000
127.912323 86.708 6.7881
128.839233 86.717 6.7680
129.772842 86.725 6.7385
130.713242 86.731 6.7051
131.660431 86.734 6.6726
132.614502 86.736 6.6421
133.575485 86.737 6.6159
134.543427 86.738 6.5940
135.518387 86.738 6.5773
136.500412 86.738 6.5650
137.489548 86.738 6.5572
138.485855 86.738 6.5530
139.489380 86.738 6.5514
140.500168 86.738 6.5530
141.518295 86.738 6.5579
142.543793 86.738 6.5660
143.576721 86.738 6.5768
144.617142 86.738 6.5910
145.665100 86.738 6.6088
146.720642 86.738 6.6309
147.783844 86.738 6.6581
148.854752 86.739 6.6909
149.933411 86.740 6.7303
151.019897 86.742 6.7759
152.114243 86.744 6.8284
153.216522 86.748 6.8848
154.326797 86.755 6.9436
155.445114 86.765 7.0009
156.571533 86.776 7.0531
157.706116 86.789 7.0979
158.848923 86.804 7.1331
160.000000 86.821 7.1550
161.159424 86.839 7.1581
162.327255 86.857 7.1450
163.503540 86.873 7.1148
164.688354 86.888 7.0721
165.881760 86.900 7.0205
167.083801 86.911 6.9622
168.294571 86.920 6.8989
169.514099 86.926 6.8352
170.742462 86.929 6.7755
171.979736 86.931 6.7211
173.225967 86.933 6.6756
174.481232 86.934 6.6371
175.745605 86.934 6.6048
177.019119 86.934 6.5791
178.301880 86.934 6.5599
179.593933 86.934 6.5470
180.895340 86.934 6.5406
182.206177 86.934 6.5400
183.526520 86.935 6.5450
184.856430 86.937 6.5550
186.195984 86.940 6.5701
187.545227 86.944 6.5870
188.904266 86.951 6.6028
190.273132 86.959 6.6150
191.651932 86.968 6.6195
193.040726 86.977 6.6170
194.439575 86.987 6.6065
195.848572 86.996 6.5891
197.267761 87.005 6.5648
198.697250 87.013 6.5361
200.137085 87.020 6.5041
201.587372 87.027 6.4721
203.048157 87.032 6.4441
204.519531 87.036 6.4191
206.001556 87.042 6.3991
207.494324 87.049 6.3791
208.997925 87.057 6.3546
210.512405 87.066 6.3251
212.037857 87.075 6.2889
213.574371 87.085 6.2451
215.122025 87.095 6.1918
216.680893 87.104 6.1302
218.251053 87.112 6.0595
219.832581 87.118 5.9832
221.425583 87.122 5.9038
223.030121 87.125 5.8232
224.646286 87.127 5.7444
226.274170 87.128 5.6672
227.913849 87.129 5.5930
229.565399 87.129 5.5202
231.228928 87.129 5.4481
232.904510 87.129 5.3752
234.592224 87.129 5.2998
236.292191 87.129 5.2212
238.004456 87.128 5.1386
239.729126 87.127 5.0512
241.466309 87.125 4.9576
243.216080 87.121 4.8593
244.978516 87.116 4.7560
246.753738 87.108 4.6513
248.541809 87.098 4.5490
250.342850 87.086 4.4483
252.156937 87.074 4.3486
253.984161 87.059 4.2533
255.824646 87.040 4.1633
257.678467 87.018 4.0852
259.545685 86.993 4.0268
261.426483 86.968 3.9841
263.320862 86.944 3.9561
265.229004 86.920 3.9420
267.150970 86.894 3.9395
269.086853 86.867 3.9519
271.036774 86.841 3.9841
273.000824 86.815 4.0289
274.979095 86.793 4.0801
276.971710 86.770 4.1398
278.978760 86.745 4.2050
281.000336 86.719 4.2838
283.036591 86.693 4.3846
285.087585 86.668 4.5026
287.153442 86.646 4.6358
289.234283 86.625 4.7836
291.330200 86.604 4.9445
293.441284 86.585 5.1185
295.567688 86.570 5.3079
297.709503 86.558 5.5035
299.866821 86.552 5.6975
302.039795 86.548 5.8884
304.228485 86.545 6.0716
306.433044 86.543 6.2495
308.653595 86.543 6.4228
310.890228 86.543 6.5925
313.143066 86.544 6.7596
315.412231 86.545 6.9255
317.697845 86.547 7.0930
320.000000 86.551 7.2595
322.318848 86.557 7.4246
324.654510 86.564 7.5845
327.007080 86.573 7.7347
329.376709 86.583 7.8766
331.763519 86.592 8.0095
334.167603 86.601 8.1346
336.589142 86.611 8.2520
339.028198 86.620 8.3637
341.484924 86.627 8.4703
343.959473 86.633 8.5767
346.451935 86.637 8.6876
348.962463 86.641 8.8047
351.491211 86.644 8.9326
354.038239 86.648 9.0676
356.603760 86.654 9.2086
359.187866 86.662 9.3526
361.790680 86.671 9.4960
364.412354 86.680 9.6386
367.053040 86.690 9.7789
369.712860 86.701 9.9176
372.391968 86.713 10.0552
375.090454 86.725 10.1906
377.808533 86.738 10.3226
380.546265 86.751 10.4526
383.303864 86.763 10.5811
386.081451 86.776 10.7096
388.879150 86.789 10.8404
391.697144 86.802 10.9716
394.535522 86.817 11.1034
397.394501 86.833 11.2326
400.274170 86.850 11.3547
403.174744 86.866 11.4736
406.096313 86.881 11.5920
409.039062 86.896 11.7096
412.003113 86.912 11.8278
414.988647 86.928 11.9446
417.995850 86.944 12.0577
421.024811 86.960 12.1706
424.075714 86.974 12.2852
427.148743 86.987 12.4046
430.244049 87.000 12.5334
433.361786 87.014 12.6695
436.502106 87.029 12.8121
439.665161 87.044 12.9615
442.851166 87.059 13.1178
446.060242 87.076 13.2815
449.292572 87.094 13.4547
452.548340 87.114 13.6334
455.827698 87.137 13.8146
459.130798 87.162 13.9974
462.457855 87.188 14.1802
465.809021 87.217 14.3624
469.184448 87.248 14.5442
472.584381 87.281 14.7225
476.008911 87.317 14.8945
479.458252 87.355 15.0595
482.932617 87.394 15.2165
486.432159 87.435 15.3636
489.957031 87.479 15.4988
493.507477 87.525 15.6206
497.083618 87.571 15.7265
500.685699 87.618 15.8177
504.313873 87.666 15.8943
507.968323 87.714 15.9578
511.649292 87.761 16.0093
515.356934 87.808 16.0499
519.091370 87.855 16.0815
522.852966 87.903 16.1020
526.641724 87.951 16.1096
530.458008 87.998 16.1050
534.301941 88.044 16.0877
538.173706 88.090 16.0601
542.073547 88.134 16.0241
546.001648 88.177 15.9812
549.958191 88.219 15.9327
553.943420 88.260 15.8802
557.957520 88.299 15.8252
562.000671 88.338 15.7692
566.073181 88.376 15.7134
570.175171 88.413 15.6592
574.306885 88.449 15.6085
578.468567 88.486 15.5602
582.660400 88.524 15.5155
586.882568 88.563 15.4692
591.135376 88.604 15.4166
595.419006 88.646 15.3572
599.733643 88.688 15.2871
604.079590 88.729 15.2113
608.456970 88.768 15.1351
612.866089 88.808 15.0543
617.307190 88.852 14.9669
621.780457 88.897 14.8703
626.286133 88.940 14.7598
630.824463 88.983 14.6394
635.395691 89.025 14.5135
640.000000 89.068 14.3765
644.637695 89.113 14.2246
649.309021 89.159 14.0566
654.014160 89.201 13.8687
658.753418 89.242 13.6657
663.527039 89.281 13.4509
668.335205 89.317 13.2248
673.178284 89.351 12.9867
678.056396 89.381 12.7438
682.969849 89.406 12.5019
687.918945 89.428 12.2638
692.903870 89.450 12.0353
697.924927 89.470 11.8128
702.982422 89.488 11.5931
708.076477 89.504 11.3808
713.207520 89.518 11.1790
718.375732 89.530 10.9877
723.581360 89.543 10.8088
728.824707 89.555 10.6396
734.106079 89.567 10.4772
739.425720 89.579 10.3235
744.783936 89.590 10.1798
750.180908 89.601 10.0455
755.617065 89.613 9.9199
761.092529 89.625 9.8044
766.607727 89.637 9.7005
772.162903 89.649 9.6063
777.758301 89.663 9.5207
783.394287 89.679 9.4433
789.071045 89.696 9.3732
794.789001 89.714 9.3112
800.548340 89.733 9.2598
806.349487 89.756 9.2132
812.192627 89.784 9.1680
818.078125 89.815 9.1192
824.006226 89.849 9.0610
829.977295 89.885 8.9923
835.991699 89.924 8.9116
842.049622 89.966 8.8144
848.151428 90.011 8.6954
854.297485 90.058 8.5546
860.488098 90.104 8.3897
866.723572 90.150 8.2027
873.004211 90.196 7.9947
879.330322 90.242 7.7659
885.702332 90.286 7.5152
892.120483 90.328 7.2480
898.585144 90.368 6.9692
905.096680 90.406 6.6781
911.655396 90.444 6.3753
918.261597 90.481 6.0612
924.915710 90.515 5.7355
931.618042 90.547 5.4012
938.368896 90.578 5.0633
945.168762 90.608 4.7163
952.017822 90.639 4.3565
958.916504 90.669 3.9845
965.865234 90.695 3.5990
972.864319 90.720 3.2015
979.914062 90.743 2.7929
987.014954 90.765 2.3736
994.167236 90.783 1.9438
1001.371399 90.799 1.5056
1008.627747 90.811 1.0608
1015.936646 90.821 0.6099
1023.298584 90.828 0.1539
1030.713867 90.832 -0.3065
1038.182739 90.832 -0.7710
1045.705933 90.829 -1.2380
1053.283447 90.823 -1.7075
1060.916016 90.812 -2.1740
1068.603882 90.795 -2.6336
1076.347412 90.773 -3.0812
1084.147095 90.748 -3.5120
1092.003296 90.718 -3.9207
