* Measurement data measured by REW V5.20.13
* Source: C:\Users\kurin\Desktop\Targets and Curves\Resolve\Img\Files\stincoo_SPL.txt
* Format: Comma/Tab/Space delimited data
* Dated: Aug 14, 2023 6:58:41 PM
* REW Settings:
*  C-weighting compensation: Off
*  Target level: 75.0 dB
* Note: ; Measurement imported from C:\Users\kurin\Desktop\Targets and Curves\Resolve\Img\Files\stincoo_SPL.txt Format: Comma/Tab/Space delimited data 623 values loaded, 5 Hz to 39,792 Hz log spaced 
* Measurement: stincoo_SPL
* Smoothing: 1/48 octave
* Frequency Step: 1/96 octave
* Start Frequency: 5.000 Hz
*
* Freq(Hz) SPL(dB) Phase(degrees)
5.000000 71.165 85.9870
5.036232 71.194 85.9630
5.072727 71.225 85.9370
5.109486 71.262 85.9061
5.146511 71.304 85.8710
5.183805 71.354 85.8304
5.221369 71.409 85.7870
5.259205 71.466 85.7438
5.297316 71.525 85.6990
5.335702 71.588 85.6509
5.374367 71.653 85.6020
5.413311 71.717 85.5545
5.452538 71.781 85.5070
5.492050 71.845 85.4586
5.531847 71.909 85.4100
5.571934 71.973 85.3616
5.612310 72.037 85.3130
5.652979 72.101 85.2637
5.693943 72.165 85.2140
5.735204 72.229 85.1641
5.776763 72.293 85.1140
5.818624 72.357 85.0637
5.860788 72.421 85.0130
5.903258 72.485 84.9617
5.946035 72.549 84.9100
5.989123 72.613 84.8581
6.032523 72.678 84.8060
6.076237 72.742 84.7537
6.120268 72.806 84.7010
6.164618 72.870 84.6477
6.209289 72.934 84.5940
6.254284 72.998 84.5402
6.299605 73.062 84.4860
6.345255 73.126 84.4313
6.391235 73.190 84.3760
6.437549 73.254 84.3201
6.484198 73.318 84.2640
6.531185 73.382 84.2082
6.578513 73.446 84.1520
6.626183 73.510 84.0948
6.674199 73.574 84.0370
6.722563 73.638 83.9792
6.771278 73.703 83.9210
6.820345 73.767 83.8622
6.869768 73.831 83.8030
6.919549 73.895 83.7438
6.969691 73.959 83.6840
7.020196 74.023 83.6233
7.071068 74.087 83.5620
7.122308 74.151 83.5006
7.173919 74.215 83.4390
7.225904 74.279 83.3773
7.278266 74.343 83.3150
7.331007 74.407 83.2518
7.384131 74.471 83.1880
7.437639 74.535 83.1242
7.491535 74.599 83.0600
7.545822 74.663 82.9953
7.600502 74.727 82.9300
7.655579 74.791 82.8643
7.711054 74.856 82.7980
7.766932 74.920 82.7313
7.823214 74.984 82.6640
7.879904 75.048 82.5963
7.937005 75.112 82.5280
7.994520 75.176 82.4593
8.052452 75.240 82.3900
8.110803 75.304 82.3203
8.169578 75.368 82.2500
8.228777 75.432 82.1793
8.288406 75.496 82.1080
8.348468 75.560 82.0358
8.408964 75.624 81.9630
8.469899 75.688 81.8902
8.531276 75.752 81.8170
8.593097 75.816 81.7433
8.655366 75.881 81.6690
8.718086 75.945 81.5938
8.781260 76.009 81.5180
8.844893 76.073 81.4418
8.908987 76.137 81.3650
8.973545 76.201 81.2878
9.038571 76.265 81.2100
9.104069 76.329 81.1313
9.170040 76.393 81.0520
9.236490 76.457 80.9723
9.303422 76.521 80.8920
9.370838 76.585 80.8113
9.438744 76.649 80.7300
9.507140 76.713 80.6484
9.576033 76.777 80.5660
9.645425 76.841 80.4824
9.715320 76.905 80.3980
9.785721 76.969 80.3138
9.856632 77.034 80.2290
9.928058 77.098 80.1434
10.000000 77.162 80.0570
10.072464 77.226 79.9700
10.145453 77.290 79.8821
10.218971 77.354 79.7934
10.293022 77.418 79.7040
10.367610 77.482 79.6143
10.442738 77.546 79.5240
10.518411 77.610 79.4328
10.594631 77.674 79.3410
10.671404 77.738 79.2489
10.748734 77.802 79.1560
10.826623 77.866 79.0619
10.905077 77.930 78.9671
10.984100 77.994 78.8719
11.063695 78.058 78.7761
11.143867 78.122 78.6795
11.224621 78.187 78.5820
11.305959 78.251 78.4834
11.387886 78.315 78.3841
11.470407 78.379 78.2844
11.553527 78.443 78.1840
11.637249 78.507 78.0830
11.721577 78.571 77.9811
11.806517 78.635 77.8780
11.892071 78.699 77.7741
11.978246 78.763 77.6694
12.065045 78.827 77.5640
12.152473 78.891 77.4579
12.240536 78.955 77.3510
12.329235 79.019 77.2434
12.418578 79.083 77.1351
12.508568 79.147 77.0260
12.599211 79.212 76.9161
12.690510 79.276 76.8051
12.782471 79.340 76.6931
12.875097 79.404 76.5800
12.968395 79.468 76.4661
13.062370 79.532 76.3515
13.157025 79.596 76.2360
13.252366 79.660 76.1195
13.348398 79.724 76.0021
13.445127 79.788 75.8841
13.542556 79.852 75.7651
13.640691 79.916 75.6451
13.739536 79.980 75.5240
13.839099 80.044 75.4020
13.939383 80.108 75.2791
14.040393 80.172 75.1556
14.142136 80.236 75.0310
14.244616 80.300 74.9050
14.347837 80.365 74.7781
14.451808 80.429 74.6506
14.556532 80.493 74.5221
14.662014 80.557 74.3922
14.768262 80.621 74.2611
14.875278 80.685 74.1292
14.983070 80.749 73.9961
15.091644 80.813 73.8621
15.201005 80.877 73.7271
15.311157 80.941 73.5912
15.422109 81.005 73.4541
15.533863 81.069 73.3157
15.646428 81.133 73.1761
15.759809 81.197 73.0356
15.874010 81.261 72.8941
15.989040 81.325 72.7517
16.104904 81.389 72.6081
16.221605 81.453 72.4632
16.339155 81.518 72.3172
16.457554 81.582 72.1702
16.576813 81.646 72.0221
16.696936 81.710 71.8727
16.817928 81.774 71.7221
16.939798 81.838 71.5706
17.062551 81.902 71.4182
17.186193 81.966 71.2647
17.310732 82.030 71.1101
17.436172 82.094 70.9541
17.562521 82.158 70.7971
17.689787 82.222 70.6396
17.817974 82.286 70.4812
17.947090 82.350 70.3216
18.077143 82.414 70.1611
18.208138 82.478 69.9994
18.340080 82.543 69.8372
18.472980 82.607 69.6748
18.606844 82.671 69.5121
18.741676 82.735 69.3488
18.877487 82.799 69.1862
19.014280 82.863 69.0256
19.152065 82.927 68.8662
19.290850 82.992 68.7072
19.430639 83.058 68.5491
19.571442 83.124 68.3933
19.713264 83.191 68.2362
19.856115 83.261 68.0757
20.000000 83.332 67.9092
20.144928 83.404 67.7318
20.290907 83.476 67.5472
20.437943 83.546 67.3590
20.586044 83.618 67.1621
20.735220 83.694 66.9524
20.885475 83.770 66.7303
21.036821 83.842 66.4923
21.189262 83.912 66.2453
21.342808 83.982 65.9979
21.497467 84.052 65.7413
21.653246 84.125 65.4671
21.810154 84.196 65.1824
21.968201 84.258 64.8889
22.127390 84.318 64.5943
22.287735 84.379 64.3079
22.449242 84.438 64.0262
22.611917 84.494 63.7455
22.775772 84.548 63.4763
22.940815 84.597 63.2286
23.107054 84.647 63.0003
23.274498 84.700 62.7943
23.443153 84.756 62.6053
23.613033 84.812 62.4308
23.784142 84.873 62.2641
23.956491 84.941 62.1025
24.130091 85.015 61.9312
24.304947 85.093 61.7336
24.481071 85.174 61.5133
24.658470 85.253 61.2698
24.837156 85.333 60.9994
25.017136 85.417 60.6973
25.198421 85.500 60.3664
25.381020 85.576 60.0032
25.564941 85.648 59.6214
25.750195 85.716 59.2322
25.936790 85.780 58.8395
26.124741 85.840 58.4495
26.314051 85.898 58.0655
26.504732 85.953 57.6925
26.696796 86.007 57.3314
26.890253 86.060 56.9870
27.085112 86.114 56.6534
27.281382 86.171 56.3290
27.479073 86.230 56.0064
27.678198 86.292 55.6797
27.878765 86.356 55.3425
28.080786 86.422 54.9860
28.284271 86.488 54.6115
28.489231 86.553 54.2152
28.695675 86.615 53.8036
28.903616 86.673 53.3799
29.113064 86.729 52.9506
29.324028 86.781 52.5236
29.536524 86.832 52.0985
29.750557 86.883 51.6773
29.966141 86.932 51.2615
30.183289 86.979 50.8549
30.402010 87.026 50.4515
30.622314 87.078 50.0495
30.844217 87.132 49.6395
31.067726 87.185 49.2074
31.292856 87.237 48.7647
31.519617 87.283 48.3171
31.748020 87.327 47.8676
31.978081 87.372 47.4221
32.209808 87.416 46.9776
32.443211 87.459 46.5308
32.678310 87.501 46.0876
32.915108 87.541 45.6572
33.153625 87.583 45.2255
33.393871 87.633 44.7856
33.635857 87.685 44.3257
33.879597 87.736 43.8289
34.125103 87.786 43.3037
34.372387 87.830 42.7526
34.621464 87.871 42.1779
34.872345 87.909 41.5805
35.125042 87.940 40.9678
35.379574 87.961 40.3413
35.635948 87.974 39.7197
35.894180 87.977 39.1192
36.154285 87.973 38.5488
36.416275 87.962 38.0227
36.680161 87.947 37.5427
36.945961 87.931 37.1165
37.213688 87.914 36.7405
37.483353 87.898 36.4161
37.754974 87.885 36.1364
38.028561 87.878 35.8991
38.304131 87.876 35.6923
38.581699 87.882 35.5061
38.861279 87.895 35.3323
39.142883 87.914 35.1606
39.426529 87.939 34.9872
39.712231 87.970 34.8079
40.000000 88.006 34.6133
40.289856 88.049 34.3923
40.581814 88.095 34.1464
40.875885 88.141 33.8717
41.172089 88.188 33.5725
41.470440 88.237 33.2533
41.770950 88.288 32.9096
42.073643 88.340 32.5414
42.378525 88.394 32.1396
42.685616 88.451 31.6929
42.994934 88.507 31.2077
43.306492 88.554 30.6812
43.620308 88.596 30.1308
43.936401 88.631 29.5741
44.254780 88.662 29.0079
44.575470 88.692 28.4337
44.898483 88.719 27.8549
45.223835 88.738 27.2703
45.551544 88.753 26.6948
45.881630 88.763 26.1488
46.214108 88.773 25.6158
46.548996 88.792 25.0918
46.886307 88.813 24.5599
47.226067 88.835 23.9997
47.568283 88.855 23.4180
47.912983 88.872 22.8130
48.260181 88.886 22.1890
48.609894 88.896 21.5476
48.962143 88.902 20.8960
49.316940 88.901 20.2384
49.674313 88.895 19.5850
50.034271 88.883 18.9477
50.396843 88.868 18.3249
50.762039 88.853 17.7218
51.129883 88.838 17.1310
51.500389 88.824 16.5510
51.873581 88.811 15.9700
52.249481 88.803 15.3789
52.628101 88.796 14.7680
53.009464 88.790 14.1264
53.393593 88.783 13.4492
53.780506 88.775 12.7258
54.170223 88.762 11.9633
54.562763 88.739 11.1620
54.958145 88.708 10.3313
55.356396 88.669 9.4781
55.757530 88.620 8.6104
56.161572 88.559 7.7362
56.568542 88.486 6.8624
56.978462 88.403 5.9989
57.391350 88.310 5.1456
57.807232 88.207 4.3026
58.226128 88.092 3.4784
58.648056 87.964 2.6754
59.073048 87.821 1.9122
59.501114 87.661 1.2032
59.932281 87.486 0.5641
60.366577 87.298 0.0083
60.804020 87.095 -0.4433
61.244629 86.874 -0.7711
61.688435 86.641 -0.9578
62.135452 86.400 -0.9805
62.585712 86.154 -0.8374
63.039234 85.907 -0.5179
63.496040 85.662 -0.0250
63.956161 85.425 0.6462
64.419617 85.199 1.4824
64.886421 84.989 2.4801
65.356621 84.799 3.6149
65.830215 84.634 4.8676
66.307251 84.494 6.2193
66.787743 84.379 7.6515
67.271713 84.292 9.1422
67.759193 84.238 10.6736
68.250206 84.214 12.2142
68.744774 84.223 13.7340
69.242928 84.261 15.2103
69.744690 84.326 16.6140
70.250084 84.414 17.9346
70.759148 84.521 19.1539
71.271896 84.646 20.2660
71.788361 84.783 21.2602
72.308571 84.932 22.1325
72.832550 85.088 22.8734
73.360321 85.248 23.4880
73.891922 85.408 23.9711
74.427376 85.566 24.3444
74.966705 85.715 24.6249
75.509949 85.860 24.8217
76.057121 86.002 24.9495
76.608261 86.140 25.0089
77.163399 86.272 25.0010
77.722557 86.398 24.9392
78.285767 86.515 24.8359
78.853058 86.627 24.6953
79.424461 86.735 24.5288
80.000000 86.841 24.3274
80.579712 86.945 24.0831
81.163628 87.043 23.8046
81.751770 87.130 23.4943
82.344177 87.211 23.1627
82.940880 87.287 22.8214
83.541901 87.357 22.4687
84.147285 87.422 22.1047
84.757050 87.482 21.7357
85.371231 87.535 21.3667
85.989868 87.583 21.0027
86.612984 87.627 20.6530
87.240616 87.669 20.3107
87.872803 87.712 19.9740
88.509560 87.753 19.6377
89.150940 87.792 19.2957
89.796967 87.829 18.9477
90.447670 87.865 18.5896
91.103088 87.898 18.2268
91.763260 87.924 17.8616
92.428215 87.946 17.4987
93.097992 87.965 17.1424
93.772614 87.981 16.7957
94.452133 87.992 16.4614
95.136566 87.999 16.1446
95.825966 88.003 15.8518
96.520363 88.006 15.5826
97.219788 88.007 15.3391
97.924286 88.008 15.1204
98.633881 88.009 14.9269
99.348625 88.011 14.7573
100.068542 88.014 14.6122
100.793686 88.020 14.4873
101.524078 88.029 14.3808
102.259766 88.042 14.2852
103.000778 88.060 14.1941
103.747162 88.082 14.1032
104.498962 88.107 14.0072
105.256203 88.135 13.9022
106.018929 88.167 13.7829
106.787186 88.201 13.6473
107.561012 88.236 13.4892
108.340446 88.271 13.3163
109.125526 88.304 13.1336
109.916290 88.336 12.9434
110.712791 88.370 12.7521
111.515060 88.405 12.5514
112.323143 88.444 12.3364
113.137085 88.484 12.1025
113.956924 88.525 11.8435
114.782700 88.566 11.5598
115.614464 88.606 11.2497
116.452255 88.644 10.9137
117.296112 88.680 10.5493
118.146095 88.713 10.1628
119.002228 88.739 9.7555
119.864563 88.759 9.3401
120.733154 88.772 8.9286
121.608040 88.780 8.5259
122.489258 88.785 8.1415
123.376869 88.788 7.7729
124.270905 88.789 7.4211
125.171425 88.789 7.0846
126.078468 88.789 6.7633
126.992081 88.789 6.4537
127.912323 88.789 6.1526
128.839233 88.789 5.8596
129.772842 88.789 5.5731
130.713242 88.789 5.2936
131.660431 88.789 5.0208
132.614502 88.789 4.7547
133.575485 88.789 4.4949
134.543427 88.789 4.2425
135.518387 88.790 3.9991
136.500412 88.791 3.7634
137.489548 88.793 3.5359
138.485855 88.798 3.3136
139.489380 88.805 3.0960
140.500168 88.816 2.8755
141.518295 88.830 2.6458
142.543793 88.847 2.4026
143.576721 88.865 2.1394
144.617142 88.884 1.8567
145.665100 88.903 1.5525
146.720642 88.921 1.2279
147.783844 88.939 0.8818
148.854752 88.954 0.5190
149.933411 88.966 0.1414
151.019897 88.974 -0.2440
152.114243 88.979 -0.6298
153.216522 88.982 -1.0159
154.326797 88.983 -1.3989
155.445114 88.984 -1.7811
156.571533 88.984 -2.1624
157.706116 88.984 -2.5461
158.848923 88.984 -2.9347
160.000000 88.984 -3.3300
161.159424 88.983 -3.7350
162.327255 88.980 -4.1491
163.503540 88.976 -4.5743
164.688354 88.969 -5.0061
165.881760 88.958 -5.4428
167.083801 88.943 -5.8779
168.294571 88.926 -6.3035
169.514099 88.906 -6.7220
170.742462 88.886 -7.1331
171.979736 88.864 -7.5369
173.225967 88.840 -7.9347
174.481232 88.815 -8.3231
175.745605 88.789 -8.6979
177.019119 88.762 -9.0631
178.301880 88.738 -9.4196
179.593933 88.714 -9.7731
180.895340 88.691 -10.1297
182.206177 88.669 -10.4891
183.526520 88.647 -10.8528
184.856430 88.624 -11.2212
186.195984 88.602 -11.5942
187.545227 88.579 -11.9741
188.904266 88.556 -12.3626
190.273132 88.533 -12.7610
191.651932 88.509 -13.1714
193.040726 88.484 -13.5938
194.439575 88.457 -14.0304
195.848572 88.428 -14.4767
197.267761 88.394 -14.9283
198.697250 88.358 -15.3879
200.137085 88.323 -15.8569
201.587372 88.284 -16.3349
203.048157 88.240 -16.8247
204.519531 88.191 -17.3175
206.001556 88.137 -17.8061
207.494324 88.078 -18.2888
208.997925 88.016 -18.7623
210.512405 87.949 -19.2249
212.037857 87.878 -19.6747
213.574371 87.803 -20.1090
215.122025 87.725 -20.5255
216.680893 87.642 -20.9210
218.251053 87.556 -21.2914
219.832581 87.467 -21.6370
221.425583 87.378 -21.9564
223.030121 87.288 -22.2513
224.646286 87.196 -22.5232
226.274170 87.103 -22.7714
227.913849 87.009 -22.9928
229.565399 86.916 -23.1955
231.228928 86.826 -23.3860
232.904510 86.737 -23.5665
234.592224 86.646 -23.7436
236.292191 86.554 -23.9106
238.004456 86.460 -24.0619
239.729126 86.365 -24.2006
241.466309 86.271 -24.3295
243.216080 86.174 -24.4437
244.978516 86.073 -24.5419
246.753738 85.968 -24.6158
248.541809 85.862 -24.6531
250.342850 85.756 -24.6640
252.156937 85.656 -24.6532
253.984161 85.557 -24.6261
255.824646 85.457 -24.5929
257.678467 85.355 -24.5431
259.545685 85.251 -24.4680
261.426483 85.146 -24.3723
263.320862 85.046 -24.2589
265.229004 84.946 -24.1254
267.150970 84.841 -23.9733
269.086853 84.735 -23.7936
271.036774 84.629 -23.5755
273.000824 84.525 -23.3248
274.979095 84.425 -23.0415
276.971710 84.328 -22.7320
278.978760 84.235 -22.3999
281.000336 84.145 -22.0530
283.036591 84.062 -21.6996
285.087585 83.982 -21.3411
287.153442 83.903 -20.9824
289.234283 83.825 -20.6210
291.330200 83.750 -20.2582
293.441284 83.675 -19.8870
295.567688 83.597 -19.5019
297.709503 83.519 -19.0991
299.866821 83.443 -18.6725
302.039795 83.368 -18.2234
304.228485 83.295 -17.7501
306.433044 83.225 -17.2544
308.653595 83.159 -16.7342
310.890228 83.098 -16.1995
313.143066 83.046 -15.6584
315.412231 82.998 -15.1155
317.697845 82.953 -14.5787
320.000000 82.911 -14.0456
322.318848 82.873 -13.5148
324.654510 82.839 -12.9916
327.007080 82.809 -12.4826
329.376709 82.781 -11.9835
331.763519 82.751 -11.4938
334.167603 82.721 -11.0095
336.589142 82.694 -10.5252
339.028198 82.669 -10.0444
341.484924 82.644 -9.5701
343.959473 82.620 -9.0993
346.451935 82.596 -8.6324
348.962463 82.571 -8.1623
351.491211 82.544 -7.6831
354.038239 82.517 -7.1915
356.603760 82.491 -6.6807
359.187866 82.467 -6.1546
361.790680 82.447 -5.6151
364.412354 82.429 -5.0616
367.053040 82.413 -4.4919
369.712860 82.402 -3.9128
372.391968 82.399 -3.3257
375.090454 82.402 -2.7457
377.808533 82.413 -2.1883
380.546265 82.429 -1.6536
383.303864 82.445 -1.1477
386.081451 82.462 -0.6664
388.879150 82.480 -0.2086
391.697144 82.498 0.2297
394.535522 82.514 0.6491
397.394501 82.529 1.0608
400.274170 82.539 1.4770
403.174744 82.550 1.8957
406.096313 82.564 2.3215
409.039062 82.581 2.7467
412.003113 82.599 3.1642
414.988647 82.619 3.5757
417.995850 82.640 3.9814
421.024811 82.662 4.3788
424.075714 82.686 4.7663
427.148743 82.711 5.1408
430.244049 82.738 5.4979
433.361786 82.765 5.8399
436.502106 82.790 6.1662
439.665161 82.813 6.4820
442.851166 82.835 6.7925
446.060242 82.855 7.0981
449.292572 82.874 7.3991
452.548340 82.891 7.7001
455.827698 82.905 8.0025
459.130798 82.916 8.3160
462.457855 82.923 8.6489
465.809021 82.928 9.0058
469.184448 82.933 9.3942
472.584381 82.940 9.8136
476.008911 82.949 10.2687
479.458252 82.962 10.7524
482.932617 82.982 11.2615
486.432159 83.009 11.7903
489.957031 83.041 12.3363
493.507477 83.082 12.8863
497.083618 83.136 13.4325
500.685699 83.201 13.9553
504.313873 83.275 14.4326
507.968323 83.356 14.8637
511.649292 83.439 15.2418
515.356934 83.525 15.5630
519.091370 83.615 15.8198
522.852966 83.705 16.0164
526.641724 83.788 16.1467
530.458008 83.864 16.2348
534.301941 83.929 16.3008
538.173706 83.989 16.3508
542.073547 84.047 16.3977
546.001648 84.101 16.4409
549.958191 84.150 16.4827
553.943420 84.196 16.5268
557.957520 84.240 16.5790
562.000671 84.284 16.6348
566.073181 84.328 16.6926
570.175171 84.371 16.7498
574.306885 84.413 16.8028
578.468567 84.453 16.8538
582.660400 84.492 16.9017
586.882568 84.529 16.9528
591.135376 84.562 17.0127
595.419006 84.594 17.0827
599.733643 84.627 17.1684
604.079590 84.661 17.2627
608.456970 84.698 17.3619
612.866089 84.737 17.4617
617.307190 84.777 17.5572
621.780457 84.818 17.6457
626.286133 84.861 17.7223
630.824463 84.905 17.7888
635.395691 84.946 17.8453
640.000000 84.987 17.8929
644.637695 85.028 17.9328
649.309021 85.069 17.9639
654.014160 85.108 17.9816
658.753418 85.145 17.9969
663.527039 85.175 18.0198
668.335205 85.205 18.0489
673.178284 85.238 18.0890
678.056396 85.273 18.1309
682.969849 85.307 18.1635
687.918945 85.340 18.1959
692.903870 85.369 18.2349
697.924927 85.398 18.2768
702.982422 85.431 18.3228
708.076477 85.464 18.3659
713.207520 85.497 18.3959
718.375732 85.527 18.4229
723.581360 85.552 18.4518
728.824707 85.575 18.4879
734.106079 85.597 18.5369
739.425720 85.617 18.6027
744.783936 85.634 18.6876
750.180908 85.649 18.8025
755.617065 85.661 18.9590
761.092529 85.675 19.1572
766.607727 85.694 19.4057
772.162903 85.720 19.6899
777.758301 85.757 20.0032
783.394287 85.804 20.3298
789.071045 85.862 20.6581
794.789001 85.932 20.9689
800.548340 86.014 21.2424
806.349487 86.106 21.4693
812.192627 86.202 21.6343
818.078125 86.303 21.7358
824.006226 86.406 21.7660
829.977295 86.509 21.7283
835.991699 86.608 21.6160
842.049622 86.700 21.4517
848.151428 86.779 21.2515
854.297485 86.852 21.0279
860.488098 86.920 20.7988
866.723572 86.984 20.5629
873.004211 87.043 20.3207
879.330322 87.098 20.0838
885.702332 87.145 19.8673
892.120483 87.192 19.6617
898.585144 87.245 19.4670
905.096680 87.300 19.2697
911.655396 87.354 19.0533
918.261597 87.406 18.8278
924.915710 87.454 18.5997
931.618042 87.501 18.3649
938.368896 87.551 18.1214
945.168762 87.601 17.8690
952.017822 87.645 17.6026
958.916504 87.687 17.3340
965.865234 87.725 17.0754
972.864319 87.762 16.8199
979.914062 87.803 16.5665
987.014954 87.845 16.3100
994.167236 87.884 16.0442
1001.371399 87.923 15.7720
