* Measurement data measured by REW V5.20.13
* Source: C:\Users\kurin\Desktop\Targets and Curves\Resolve\Img\Files\Airpods Max BT ANC_SPL.txt
* Format: Comma/Tab/Space delimited data
* Dated: Aug 14, 2023 2:47:08 PM
* REW Settings:
*  C-weighting compensation: Off
*  Target level: 75.0 dB
* Note: ; Measurement imported from C:\Users\kurin\Desktop\Targets and Curves\Resolve\Img\Files\Airpods Max BT ANC_SPL.txt Format: Comma/Tab/Space delimited data 623 values loaded, 5 Hz to 39,792 Hz log spaced 
* Measurement: Airpods Max BT ANC_SPL
* Smoothing: 1/48 octave
* Frequency Step: 1/96 octave
* Start Frequency: 5.000 Hz
*
* Freq(Hz) SPL(dB) Phase(degrees)
5.000000 98.209 -24.4630
5.036232 98.201 -24.4639
5.072727 98.193 -24.4650
5.109486 98.184 -24.4664
5.146511 98.173 -24.4680
5.183805 98.160 -24.4697
5.221369 98.146 -24.4720
5.259205 98.131 -24.4752
5.297316 98.116 -24.4790
5.335702 98.100 -24.4834
5.374367 98.083 -24.4880
5.413311 98.067 -24.4924
5.452538 98.050 -24.4970
5.492050 98.034 -24.5020
5.531847 98.017 -24.5070
5.571934 98.001 -24.5115
5.612310 97.984 -24.5160
5.652979 97.967 -24.5209
5.693943 97.950 -24.5260
5.735204 97.933 -24.5309
5.776763 97.917 -24.5360
5.818624 97.901 -24.5415
5.860788 97.884 -24.5470
5.903258 97.868 -24.5520
5.946035 97.851 -24.5570
5.989123 97.835 -24.5624
6.032523 97.818 -24.5680
6.076237 97.802 -24.5735
6.120268 97.785 -24.5790
6.164618 97.768 -24.5845
6.209289 97.751 -24.5900
6.254284 97.734 -24.5954
6.299605 97.718 -24.6010
6.345255 97.702 -24.6070
6.391235 97.685 -24.6130
6.437549 97.669 -24.6185
6.484198 97.652 -24.6240
6.531185 97.636 -24.6299
6.578513 97.619 -24.6360
6.626183 97.603 -24.6419
6.674199 97.586 -24.6480
6.722563 97.569 -24.6545
6.771278 97.552 -24.6610
6.820345 97.535 -24.6670
6.869768 97.519 -24.6730
6.919549 97.503 -24.6794
6.969691 97.486 -24.6860
7.020196 97.470 -24.6925
7.071068 97.453 -24.6990
7.122308 97.437 -24.7055
7.173919 97.420 -24.7120
7.225904 97.404 -24.7184
7.278266 97.387 -24.7250
7.331007 97.370 -24.7319
7.384131 97.353 -24.7390
7.437639 97.336 -24.7460
7.491535 97.320 -24.7530
7.545822 97.304 -24.7600
7.600502 97.287 -24.7670
7.655579 97.271 -24.7739
7.711054 97.254 -24.7810
7.766932 97.238 -24.7885
7.823214 97.221 -24.7960
7.879904 97.204 -24.8030
7.937005 97.187 -24.8100
7.994520 97.170 -24.8174
8.052452 97.154 -24.8250
8.110803 97.138 -24.8330
8.169578 97.121 -24.8410
8.228777 97.105 -24.8485
8.288406 97.088 -24.8560
8.348468 97.072 -24.8639
8.408964 97.055 -24.8720
8.469899 97.039 -24.8800
8.531276 97.022 -24.8880
8.593097 97.005 -24.8960
8.655366 96.988 -24.9040
8.718086 96.971 -24.9119
8.781260 96.955 -24.9200
8.844893 96.939 -24.9284
8.908987 96.922 -24.9370
8.973545 96.906 -24.9455
9.038571 96.889 -24.9540
9.104069 96.873 -24.9624
9.170040 96.856 -24.9710
9.236490 96.840 -24.9799
9.303422 96.823 -24.9890
9.370838 96.806 -24.9980
9.438744 96.789 -25.0070
9.507140 96.772 -25.0160
9.576033 96.756 -25.0250
9.645425 96.740 -25.0339
9.715320 96.723 -25.0430
9.785721 96.707 -25.0524
9.856632 96.690 -25.0620
9.928058 96.674 -25.0714
10.000000 96.657 -25.0810
10.072464 96.640 -25.0910
10.145453 96.623 -25.1010
10.218971 96.606 -25.1105
10.293022 96.590 -25.1200
10.367610 96.574 -25.1299
10.442738 96.557 -25.1400
10.518411 96.541 -25.1505
10.594631 96.524 -25.1610
10.671404 96.507 -25.1710
10.748734 96.491 -25.1810
10.826623 96.475 -25.1914
10.905077 96.458 -25.2020
10.984100 96.441 -25.2124
11.063695 96.424 -25.2230
11.143867 96.407 -25.2339
11.224621 96.391 -25.2450
11.305959 96.375 -25.2559
11.387886 96.358 -25.2670
11.470407 96.342 -25.2785
11.553527 96.325 -25.2900
11.637249 96.309 -25.3010
11.721577 96.292 -25.3120
11.806517 96.276 -25.3234
11.892071 96.259 -25.3350
11.978246 96.242 -25.3469
12.065045 96.225 -25.3590
12.152473 96.208 -25.3710
12.240536 96.192 -25.3830
12.329235 96.176 -25.3949
12.418578 96.159 -25.4070
12.508568 96.143 -25.4194
12.599211 96.126 -25.4320
12.690510 96.110 -25.4445
12.782471 96.093 -25.4570
12.875097 96.077 -25.4694
12.968395 96.060 -25.4820
13.062370 96.043 -25.4949
13.157025 96.026 -25.5080
13.252366 96.009 -25.5209
13.348398 95.993 -25.5340
13.445127 95.977 -25.5474
13.542556 95.960 -25.5610
13.640691 95.944 -25.5745
13.739536 95.927 -25.5880
13.839099 95.911 -25.6014
13.939383 95.894 -25.6150
14.040393 95.877 -25.6289
14.142136 95.860 -25.6430
14.244616 95.843 -25.6574
14.347837 95.827 -25.6720
14.451808 95.811 -25.6865
14.556532 95.794 -25.7010
14.662014 95.778 -25.7154
14.768262 95.761 -25.7300
14.875278 95.745 -25.7449
14.983070 95.728 -25.7600
15.091644 95.712 -25.7749
15.201005 95.695 -25.7900
15.311157 95.678 -25.8054
15.422109 95.661 -25.8210
15.533863 95.644 -25.8365
15.646428 95.628 -25.8520
15.759809 95.612 -25.8674
15.874010 95.595 -25.8830
15.989040 95.579 -25.8989
16.104904 95.562 -25.9150
16.221605 95.546 -25.9315
16.339155 95.529 -25.9480
16.457554 95.513 -25.9640
16.576813 95.496 -25.9800
16.696936 95.479 -25.9964
16.817928 95.462 -26.0130
16.939798 95.445 -26.0294
17.062551 95.429 -26.0460
17.186193 95.413 -26.0630
17.310732 95.396 -26.0800
17.436172 95.380 -26.0966
17.562521 95.363 -26.1130
17.689787 95.347 -26.1295
17.817974 95.330 -26.1460
17.947090 95.314 -26.1620
18.077143 95.297 -26.1780
18.208138 95.280 -26.1941
18.340080 95.263 -26.2100
18.472980 95.246 -26.2252
18.606844 95.230 -26.2400
18.741676 95.214 -26.2545
18.877487 95.197 -26.2680
19.014280 95.181 -26.2798
19.152065 95.164 -26.2900
19.290850 95.147 -26.2984
19.430639 95.131 -26.3050
19.571442 95.116 -26.3091
19.713264 95.101 -26.3120
19.856115 95.087 -26.3136
20.000000 95.075 -26.3170
20.144928 95.064 -26.3242
20.290907 95.054 -26.3380
20.437943 95.045 -26.3617
20.586044 95.037 -26.3960
20.735220 95.028 -26.4428
20.885475 95.019 -26.5009
21.036821 95.009 -26.5707
21.189262 94.997 -26.6489
21.342808 94.982 -26.7345
21.497467 94.965 -26.8209
21.653246 94.944 -26.9030
21.810154 94.921 -26.9759
21.968201 94.895 -27.0331
22.127390 94.869 -27.0750
22.287735 94.843 -27.0985
22.449242 94.819 -27.1080
22.611917 94.796 -27.1050
22.775772 94.776 -27.0950
22.940815 94.759 -27.0821
23.107054 94.745 -27.0720
23.274498 94.734 -27.0711
23.443153 94.724 -27.0820
23.613033 94.715 -27.1108
23.784142 94.705 -27.1540
23.956491 94.693 -27.2111
24.130091 94.680 -27.2779
24.304947 94.665 -27.3528
24.481071 94.647 -27.4269
24.658470 94.623 -27.4926
24.837156 94.597 -27.5439
25.017136 94.569 -27.5710
25.198421 94.542 -27.5780
25.381020 94.517 -27.5648
25.564941 94.494 -27.5340
25.750195 94.472 -27.4865
25.936790 94.454 -27.4271
26.124741 94.441 -27.3572
26.314051 94.433 -27.2881
26.504732 94.432 -27.2294
26.696796 94.435 -27.1870
26.890253 94.441 -27.1698
27.085112 94.450 -27.1790
27.281382 94.461 -27.2179
27.479073 94.474 -27.2899
27.678198 94.487 -27.4011
27.878765 94.497 -27.5458
28.080786 94.503 -27.7233
28.284271 94.504 -27.9237
28.489231 94.500 -28.1399
28.695675 94.491 -28.3627
28.903616 94.475 -28.5834
29.113064 94.454 -28.7937
29.324028 94.429 -28.9818
29.536524 94.401 -29.1488
29.750557 94.374 -29.2891
29.966141 94.348 -29.4109
30.183289 94.324 -29.5177
30.402010 94.303 -29.6179
30.622314 94.286 -29.7177
30.844217 94.273 -29.8269
31.067726 94.263 -29.9568
31.292856 94.255 -30.1087
31.519617 94.245 -30.2895
31.748020 94.234 -30.4937
31.978081 94.220 -30.7195
32.209808 94.203 -30.9627
32.443211 94.181 -31.2202
32.678310 94.155 -31.4867
32.915108 94.124 -31.7573
33.153625 94.089 -32.0267
33.393871 94.048 -32.2896
33.635857 94.002 -32.5396
33.879597 93.952 -32.7694
34.125103 93.898 -32.9767
34.372387 93.841 -33.1575
34.621464 93.783 -33.3108
34.872345 93.724 -33.4324
35.125042 93.665 -33.5279
35.379574 93.609 -33.5989
35.635948 93.556 -33.6539
35.894180 93.506 -33.7011
36.154285 93.458 -33.7439
36.416275 93.412 -33.7879
36.680161 93.367 -33.8349
36.945961 93.324 -33.8898
37.213688 93.280 -33.9499
37.483353 93.234 -34.0168
37.754974 93.185 -34.0829
38.028561 93.134 -34.1413
38.304131 93.081 -34.1909
38.581699 93.027 -34.2288
38.861279 92.972 -34.2540
39.142883 92.916 -34.2649
39.426529 92.859 -34.2600
39.712231 92.801 -34.2367
40.000000 92.744 -34.1961
40.289856 92.688 -34.1381
40.581814 92.633 -34.0641
40.875885 92.580 -33.9750
41.172089 92.528 -33.8722
41.470440 92.478 -33.7556
41.770950 92.431 -33.6312
42.073643 92.388 -33.5031
42.378525 92.348 -33.3772
42.685616 92.311 -33.2610
42.994934 92.275 -33.1531
43.306492 92.239 -33.0559
43.620308 92.203 -32.9661
43.936401 92.166 -32.8841
44.254780 92.128 -32.8021
44.575470 92.086 -32.7143
44.898483 92.041 -32.6152
45.223835 91.996 -32.4963
45.551544 91.951 -32.3602
45.881630 91.907 -32.2066
46.214108 91.865 -32.0353
46.548996 91.824 -31.8442
46.886307 91.785 -31.6383
47.226067 91.751 -31.4189
47.568283 91.722 -31.1954
47.912983 91.698 -30.9781
48.260181 91.676 -30.7653
48.609894 91.656 -30.5592
48.962143 91.637 -30.3583
49.316940 91.621 -30.1609
49.674313 91.607 -29.9703
50.034271 91.596 -29.7898
50.396843 91.586 -29.6183
50.762039 91.577 -29.4558
51.129883 91.570 -29.3023
51.500389 91.564 -29.1566
51.873581 91.559 -29.0212
52.249481 91.556 -28.8980
52.628101 91.555 -28.7872
53.009464 91.554 -28.6896
53.393593 91.553 -28.6051
53.780506 91.553 -28.5340
54.170223 91.553 -28.4761
54.562763 91.553 -28.4312
54.958145 91.553 -28.3990
55.356396 91.552 -28.3791
55.757530 91.551 -28.3710
56.161572 91.549 -28.3745
56.568542 91.547 -28.3880
56.978462 91.543 -28.4108
57.391350 91.537 -28.4399
57.807232 91.530 -28.4719
58.226128 91.522 -28.5079
58.648056 91.514 -28.5477
59.073048 91.506 -28.5919
59.501114 91.497 -28.6415
59.932281 91.487 -28.6959
60.366577 91.476 -28.7544
60.804020 91.465 -28.8179
61.244629 91.454 -28.8868
61.688435 91.442 -28.9619
62.135452 91.429 -29.0450
62.585712 91.415 -29.1338
63.039234 91.399 -29.2264
63.496040 91.382 -29.3238
63.956161 91.365 -29.4268
64.419617 91.346 -29.5348
64.886421 91.325 -29.6495
65.356621 91.302 -29.7648
65.830215 91.275 -29.8745
66.307251 91.246 -29.9808
66.787743 91.218 -30.0846
67.271713 91.189 -30.1838
67.759193 91.156 -30.2786
68.250206 91.120 -30.3639
68.744774 91.084 -30.4317
69.242928 91.048 -30.4899
69.744690 91.014 -30.5435
70.250084 90.981 -30.5929
70.759148 90.946 -30.6410
71.271896 90.911 -30.6859
71.788361 90.876 -30.7261
72.308571 90.841 -30.7639
72.832550 90.807 -30.8017
73.360321 90.772 -30.8379
73.891922 90.735 -30.8719
74.427376 90.698 -30.9029
74.966705 90.661 -30.9296
75.509949 90.624 -30.9530
76.057121 90.586 -30.9733
76.608261 90.548 -30.9910
77.163399 90.510 -31.0059
77.722557 90.472 -31.0190
78.285767 90.433 -31.0312
78.853058 90.394 -31.0420
79.424461 90.355 -31.0513
80.000000 90.314 -31.0580
80.579712 90.272 -31.0619
81.163628 90.229 -31.0600
81.751770 90.184 -31.0494
82.344177 90.138 -31.0291
82.940880 90.092 -30.9966
83.541901 90.046 -30.9531
84.147285 90.001 -30.8986
84.757050 89.956 -30.8341
85.371231 89.911 -30.7588
85.989868 89.868 -30.6782
86.612984 89.829 -30.5967
87.240616 89.790 -30.5162
87.872803 89.751 -30.4411
88.509560 89.711 -30.3681
89.150940 89.671 -30.2958
89.796967 89.630 -30.2222
90.447670 89.588 -30.1454
91.103088 89.545 -30.0632
91.763260 89.501 -29.9738
92.428215 89.455 -29.8742
93.097992 89.409 -29.7613
93.772614 89.362 -29.6343
94.452133 89.316 -29.4904
95.136566 89.271 -29.3323
95.825966 89.227 -29.1607
96.520363 89.185 -28.9794
97.219788 89.147 -28.7922
97.924286 89.110 -28.6004
98.633881 89.074 -28.4062
99.348625 89.040 -28.2104
100.068542 89.008 -28.0139
100.793686 88.978 -27.8185
101.524078 88.949 -27.6260
102.259766 88.920 -27.4365
103.000778 88.893 -27.2511
103.747162 88.866 -27.0674
104.498962 88.838 -26.8842
105.256203 88.809 -26.6984
106.018929 88.782 -26.5058
106.787186 88.755 -26.3084
107.561012 88.729 -26.1059
108.340446 88.705 -25.9013
109.125526 88.683 -25.6980
109.916290 88.662 -25.4954
110.712791 88.641 -25.2943
111.515060 88.622 -25.0944
112.323143 88.605 -24.8951
113.137085 88.588 -24.6984
113.956924 88.572 -24.5074
114.782700 88.556 -24.3185
115.614464 88.540 -24.1291
116.452255 88.525 -23.9394
117.296112 88.512 -23.7479
118.146095 88.500 -23.5574
119.002228 88.490 -23.3698
119.864563 88.481 -23.1865
120.733154 88.474 -23.0084
121.608040 88.468 -22.8394
122.489258 88.465 -22.6830
123.376869 88.464 -22.5403
124.270905 88.462 -22.4141
125.171425 88.460 -22.3032
126.078468 88.458 -22.2086
126.992081 88.455 -22.1272
127.912323 88.450 -22.0571
128.839233 88.443 -21.9951
129.772842 88.434 -21.9374
130.713242 88.424 -21.8831
131.660431 88.412 -21.8313
132.614502 88.398 -21.7792
133.575485 88.383 -21.7226
134.543427 88.368 -21.6641
135.518387 88.353 -21.6040
136.500412 88.337 -21.5441
137.489548 88.321 -21.4876
138.485855 88.303 -21.4311
139.489380 88.284 -21.3724
140.500168 88.264 -21.3121
141.518295 88.245 -21.2505
142.543793 88.225 -21.1872
143.576721 88.203 -21.1233
144.617142 88.179 -21.0542
145.665100 88.153 -20.9747
146.720642 88.127 -20.8863
147.783844 88.101 -20.7873
148.854752 88.076 -20.6813
149.933411 88.051 -20.5725
151.019897 88.026 -20.4563
152.114243 87.999 -20.3294
153.216522 87.971 -20.1924
154.326797 87.946 -20.0442
155.445114 87.922 -19.8874
156.571533 87.898 -19.7248
157.706116 87.875 -19.5544
158.848923 87.852 -19.3740
160.000000 87.831 -19.1875
161.159424 87.813 -18.9974
162.327255 87.797 -18.8054
163.503540 87.782 -18.6148
164.688354 87.767 -18.4234
165.881760 87.753 -18.2292
167.083801 87.741 -18.0345
168.294571 87.731 -17.8412
169.514099 87.722 -17.6495
170.742462 87.714 -17.4607
171.979736 87.706 -17.2735
173.225967 87.700 -17.0860
174.481232 87.695 -16.9014
175.745605 87.692 -16.7227
177.019119 87.691 -16.5494
178.301880 87.690 -16.3821
179.593933 87.689 -16.2204
180.895340 87.690 -16.0644
182.206177 87.691 -15.9134
183.526520 87.692 -15.7659
184.856430 87.695 -15.6243
186.195984 87.700 -15.4895
187.545227 87.706 -15.3643
188.904266 87.713 -15.2518
190.273132 87.721 -15.1522
191.651932 87.728 -15.0666
193.040726 87.735 -14.9952
194.439575 87.743 -14.9389
195.848572 87.750 -14.8971
197.267761 87.755 -14.8707
198.697250 87.759 -14.8560
200.137085 87.760 -14.8509
201.587372 87.759 -14.8520
203.048157 87.755 -14.8563
204.519531 87.748 -14.8610
206.001556 87.739 -14.8626
207.494324 87.729 -14.8600
208.997925 87.717 -14.8513
210.512405 87.704 -14.8350
212.037857 87.690 -14.8083
213.574371 87.675 -14.7731
215.122025 87.661 -14.7293
216.680893 87.648 -14.6811
218.251053 87.636 -14.6328
219.832581 87.624 -14.5841
221.425583 87.611 -14.5366
223.030121 87.598 -14.4891
224.646286 87.585 -14.4411
226.274170 87.572 -14.3921
227.913849 87.558 -14.3427
229.565399 87.543 -14.2901
231.228928 87.527 -14.2315
232.904510 87.511 -14.1682
234.592224 87.496 -14.0999
236.292191 87.482 -14.0282
238.004456 87.468 -13.9544
239.729126 87.454 -13.8792
241.466309 87.441 -13.8030
243.216080 87.428 -13.7272
244.978516 87.417 -13.6541
246.753738 87.406 -13.5822
248.541809 87.393 -13.5121
250.342850 87.379 -13.4402
252.156937 87.366 -13.3613
253.984161 87.354 -13.2802
255.824646 87.344 -13.1998
257.678467 87.335 -13.1212
259.545685 87.326 -13.0459
261.426483 87.319 -12.9762
263.320862 87.313 -12.9134
265.229004 87.309 -12.8621
267.150970 87.306 -12.8268
269.086853 87.303 -12.8090
271.036774 87.300 -12.8128
273.000824 87.295 -12.8359
274.979095 87.288 -12.8788
276.971710 87.278 -12.9378
278.978760 87.264 -13.0112
281.000336 87.246 -13.0938
283.036591 87.223 -13.1810
285.087585 87.196 -13.2687
287.153442 87.164 -13.3529
289.234283 87.126 -13.4288
291.330200 87.084 -13.4927
293.441284 87.037 -13.5379
295.567688 86.985 -13.5582
297.709503 86.928 -13.5491
299.866821 86.869 -13.5032
302.039795 86.808 -13.4233
304.228485 86.747 -13.3104
306.433044 86.686 -13.1625
308.653595 86.623 -12.9767
310.890228 86.561 -12.7557
313.143066 86.503 -12.4983
315.412231 86.447 -12.2128
317.697845 86.395 -11.9070
320.000000 86.346 -11.5810
322.318848 86.300 -11.2379
324.654510 86.256 -10.8772
327.007080 86.215 -10.4989
329.376709 86.176 -10.1043
331.763519 86.140 -9.6936
334.167603 86.108 -9.2694
336.589142 86.081 -8.8330
339.028198 86.057 -8.3883
341.484924 86.038 -7.9392
343.959473 86.022 -7.4863
346.451935 86.009 -7.0302
348.962463 86.000 -6.5743
351.491211 85.995 -6.1224
354.038239 85.994 -5.6733
356.603760 85.994 -5.2272
359.187866 85.997 -4.7833
361.790680 86.003 -4.3397
364.412354 86.013 -3.9002
367.053040 86.027 -3.4677
369.712860 86.044 -3.0433
372.391968 86.064 -2.6284
375.090454 86.087 -2.2261
377.808533 86.114 -1.8399
380.546265 86.144 -1.4711
383.303864 86.175 -1.1231
386.081451 86.207 -0.7939
388.879150 86.241 -0.4825
391.697144 86.276 -0.1889
394.535522 86.311 0.0862
397.394501 86.346 0.3453
400.274170 86.381 0.5906
403.174744 86.416 0.8223
406.096313 86.451 1.0411
409.039062 86.487 1.2474
412.003113 86.522 1.4415
414.988647 86.557 1.6244
417.995850 86.592 1.7982
421.024811 86.627 1.9605
424.075714 86.663 2.1093
427.148743 86.699 2.2456
430.244049 86.734 2.3701
433.361786 86.768 2.4817
436.502106 86.803 2.5790
439.665161 86.837 2.6628
442.851166 86.868 2.7313
446.060242 86.897 2.7908
449.292572 86.923 2.8467
452.548340 86.947 2.8998
455.827698 86.970 2.9531
459.130798 86.993 3.0058
462.457855 87.014 3.0576
465.809021 87.034 3.1098
469.184448 87.053 3.1633
472.584381 87.071 3.2188
476.008911 87.088 3.2780
479.458252 87.105 3.3388
482.932617 87.122 3.3997
486.432159 87.139 3.4608
489.957031 87.155 3.5215
493.507477 87.171 3.5828
497.083618 87.186 3.6464
500.685699 87.202 3.7098
504.313873 87.218 3.7706
507.968323 87.234 3.8298
511.649292 87.248 3.8873
515.356934 87.261 3.9448
519.091370 87.274 4.0033
522.852966 87.285 4.0658
526.641724 87.294 4.1349
530.458008 87.302 4.2127
534.301941 87.311 4.3028
538.173706 87.320 4.4026
542.073547 87.329 4.5114
546.001648 87.340 4.6276
549.958191 87.352 4.7507
553.943420 87.366 4.8776
557.957520 87.382 5.0050
562.000671 87.400 5.1326
566.073181 87.418 5.2594
570.175171 87.437 5.3846
574.306885 87.458 5.5087
578.468567 87.481 5.6266
582.660400 87.506 5.7333
586.882568 87.532 5.8297
591.135376 87.557 5.9142
595.419006 87.581 5.9898
599.733643 87.605 6.0581
604.079590 87.627 6.1218
608.456970 87.647 6.1824
612.866089 87.666 6.2448
617.307190 87.684 6.3141
621.780457 87.701 6.3917
626.286133 87.717 6.4821
630.824463 87.735 6.5817
635.395691 87.756 6.6908
640.000000 87.779 6.8016
644.637695 87.806 6.9075
649.309021 87.834 7.0057
654.014160 87.863 7.0899
658.753418 87.892 7.1648
663.527039 87.920 7.2329
668.335205 87.949 7.2938
673.178284 87.979 7.3471
678.056396 88.008 7.3948
682.969849 88.034 7.4369
687.918945 88.060 7.4788
692.903870 88.085 7.5277
697.924927 88.110 7.5798
702.982422 88.137 7.6344
708.076477 88.165 7.6898
713.207520 88.193 7.7445
718.375732 88.222 7.7968
723.581360 88.253 7.8448
728.824707 88.285 7.8879
734.106079 88.317 7.9238
739.425720 88.350 7.9549
744.783936 88.382 7.9835
750.180908 88.414 8.0069
755.617065 88.448 8.0229
761.092529 88.483 8.0330
766.607727 88.515 8.0369
772.162903 88.547 8.0380
777.758301 88.579 8.0411
783.394287 88.613 8.0410
789.071045 88.648 8.0345
794.789001 88.684 8.0211
800.548340 88.719 7.9985
806.349487 88.754 7.9691
812.192627 88.788 7.9338
818.078125 88.822 7.8942
824.006226 88.855 7.8515
829.977295 88.887 7.8072
835.991699 88.919 7.7618
842.049622 88.951 7.7182
848.151428 88.981 7.6798
854.297485 89.012 7.6451
860.488098 89.045 7.6152
866.723572 89.080 7.5851
873.004211 89.117 7.5514
879.330322 89.156 7.5112
