* Measurement data measured by REW V5.20.13
* Source: C:\Users\kurin\Desktop\Targets and Curves\Resolve\Img\Files\Focal Bathys_SPL.txt
* Format: Comma/Tab/Space delimited data
* Dated: Aug 14, 2023 3:36:43 PM
* REW Settings:
*  C-weighting compensation: Off
*  Target level: 75.0 dB
* Note: ; Measurement imported from C:\Users\kurin\Desktop\Targets and Curves\Resolve\Img\Files\Focal Bathys_SPL.txt Format: Comma/Tab/Space delimited data 623 values loaded, 5 Hz to 39,792 Hz log spaced 
* Measurement: Focal Bathys_SPL
* Smoothing: 1/48 octave
* Frequency Step: 1/96 octave
* Start Frequency: 5.000 Hz
*
* Freq(Hz) SPL(dB) Phase(degrees)
5.000000 94.405 7.9230
5.036232 94.408 7.9173
5.072727 94.411 7.9110
5.109486 94.415 7.9031
5.146511 94.419 7.8940
5.183805 94.424 7.8834
5.221369 94.430 7.8720
5.259205 94.436 7.8603
5.297316 94.442 7.8480
5.335702 94.449 7.8346
5.374367 94.456 7.8210
5.413311 94.463 7.8081
5.452538 94.469 7.7950
5.492050 94.476 7.7811
5.531847 94.483 7.7670
5.571934 94.490 7.7535
5.612310 94.496 7.7400
5.652979 94.503 7.7261
5.693943 94.510 7.7120
5.735204 94.517 7.6981
5.776763 94.523 7.6840
5.818624 94.529 7.6696
5.860788 94.536 7.6550
5.903258 94.543 7.6405
5.946035 94.550 7.6260
5.989123 94.557 7.6116
6.032523 94.563 7.5970
6.076237 94.570 7.5821
6.120268 94.577 7.5670
6.164618 94.583 7.5521
6.209289 94.590 7.5370
6.254284 94.597 7.5216
6.299605 94.604 7.5060
6.345255 94.611 7.4906
6.391235 94.617 7.4750
6.437549 94.623 7.4591
6.484198 94.630 7.4430
6.531185 94.637 7.4271
6.578513 94.644 7.4110
6.626183 94.650 7.3946
6.674199 94.657 7.3780
6.722563 94.664 7.3615
6.771278 94.671 7.3450
6.820345 94.677 7.3286
6.869768 94.684 7.3120
6.919549 94.691 7.2946
6.969691 94.698 7.2770
7.020196 94.705 7.2600
7.071068 94.711 7.2430
7.122308 94.717 7.2256
7.173919 94.724 7.2080
7.225904 94.731 7.1901
7.278266 94.738 7.1720
7.331007 94.744 7.1541
7.384131 94.751 7.1360
7.437639 94.758 7.1176
7.491535 94.765 7.0990
7.545822 94.771 7.0806
7.600502 94.778 7.0620
7.655579 94.785 7.0431
7.711054 94.792 7.0240
7.766932 94.799 7.0051
7.823214 94.805 6.9860
7.879904 94.811 6.9666
7.937005 94.818 6.9470
7.994520 94.825 6.9276
8.052452 94.832 6.9080
8.110803 94.839 6.8881
8.169578 94.845 6.8680
8.228777 94.852 6.8476
8.288406 94.859 6.8270
8.348468 94.866 6.8066
8.408964 94.872 6.7860
8.469899 94.878 6.7651
8.531276 94.885 6.7440
8.593097 94.892 6.7226
8.655366 94.899 6.7010
8.718086 94.906 6.6796
8.781260 94.912 6.6580
8.844893 94.919 6.6361
8.908987 94.926 6.6140
8.973545 94.933 6.5921
9.038571 94.939 6.5700
9.104069 94.946 6.5471
9.170040 94.953 6.5240
9.236490 94.960 6.5016
9.303422 94.966 6.4790
9.370838 94.972 6.4556
9.438744 94.979 6.4320
9.507140 94.986 6.4086
9.576033 94.993 6.3850
9.645425 94.999 6.3611
9.715320 95.006 6.3370
9.785721 95.013 6.3126
9.856632 95.020 6.2880
9.928058 95.026 6.2631
10.000000 95.033 6.2380
10.072464 95.040 6.2131
10.145453 95.047 6.1880
10.218971 95.054 6.1626
10.293022 95.060 6.1370
10.367610 95.066 6.1111
10.442738 95.073 6.0850
10.518411 95.080 6.0586
10.594631 95.087 6.0320
10.671404 95.093 6.0056
10.748734 95.100 5.9790
10.826623 95.107 5.9522
10.905077 95.114 5.9250
10.984100 95.120 5.8971
11.063695 95.127 5.8690
11.143867 95.134 5.8410
11.224621 95.141 5.8130
11.305959 95.148 5.7851
11.387886 95.154 5.7570
11.470407 95.160 5.7282
11.553527 95.167 5.6990
11.637249 95.174 5.6696
11.721577 95.181 5.6400
11.806517 95.187 5.6101
11.892071 95.194 5.5800
11.978246 95.201 5.5501
12.065045 95.208 5.5200
12.152473 95.215 5.4892
12.240536 95.221 5.4580
12.329235 95.227 5.4266
12.418578 95.234 5.3950
12.508568 95.241 5.3636
12.599211 95.248 5.3320
12.690510 95.254 5.2996
12.782471 95.261 5.2670
12.875097 95.268 5.2347
12.968395 95.275 5.2020
13.062370 95.282 5.1687
13.157025 95.288 5.1350
13.252366 95.295 5.1011
13.348398 95.302 5.0670
13.445127 95.309 5.0327
13.542556 95.315 4.9980
13.640691 95.321 4.9632
13.739536 95.328 4.9280
13.839099 95.335 4.8921
13.939383 95.342 4.8560
14.040393 95.348 4.8201
14.142136 95.355 4.7840
14.244616 95.362 4.7472
14.347837 95.369 4.7100
14.451808 95.376 4.6726
14.556532 95.382 4.6350
14.662014 95.389 4.5972
14.768262 95.396 4.5590
14.875278 95.403 4.5202
14.983070 95.409 4.4810
15.091644 95.415 4.4417
15.201005 95.422 4.4020
15.311157 95.429 4.3618
15.422109 95.436 4.3210
15.533863 95.442 4.2797
15.646428 95.449 4.2380
15.759809 95.456 4.1967
15.874010 95.463 4.1550
15.989040 95.469 4.1123
16.104904 95.476 4.0690
16.221605 95.483 4.0257
16.339155 95.490 3.9821
16.457554 95.497 3.9383
16.576813 95.503 3.8940
16.696936 95.509 3.8488
16.817928 95.516 3.8030
16.939798 95.523 3.7572
17.062551 95.530 3.7111
17.186193 95.536 3.6643
17.310732 95.543 3.6170
17.436172 95.550 3.5693
17.562521 95.557 3.5210
17.689787 95.563 3.4723
17.817974 95.570 3.4231
17.947090 95.577 3.3734
18.077143 95.584 3.3230
18.208138 95.591 3.2719
18.340080 95.597 3.2201
18.472980 95.603 3.1674
18.606844 95.610 3.1140
18.741676 95.617 3.0600
18.877487 95.624 3.0051
19.014280 95.631 2.9487
19.152065 95.637 2.8911
19.290850 95.643 2.8322
19.430639 95.650 2.7720
19.571442 95.657 2.7102
19.713264 95.663 2.6471
19.856115 95.668 2.5825
20.000000 95.673 2.5181
20.144928 95.677 2.4549
20.290907 95.681 2.3941
20.437943 95.685 2.3367
20.586044 95.688 2.2830
20.735220 95.691 2.2339
20.885475 95.695 2.1881
21.036821 95.700 2.1458
21.189262 95.706 2.1041
21.342808 95.713 2.0596
21.497467 95.720 2.0131
21.653246 95.727 1.9643
21.810154 95.734 1.9131
21.968201 95.741 1.8593
22.127390 95.749 1.8031
22.287735 95.756 1.7440
22.449242 95.764 1.6830
22.611917 95.771 1.6213
22.775772 95.779 1.5581
22.940815 95.787 1.4929
23.107054 95.794 1.4261
23.274498 95.800 1.3578
23.443153 95.807 1.2881
23.613033 95.815 1.2170
23.784142 95.822 1.1451
23.956491 95.828 1.0724
24.130091 95.833 1.0001
24.304947 95.839 0.9300
24.481071 95.846 0.8601
24.658470 95.853 0.7893
24.837156 95.860 0.7171
25.017136 95.866 0.6422
25.198421 95.873 0.5651
25.381020 95.880 0.4861
25.564941 95.888 0.4051
25.750195 95.895 0.3215
25.936790 95.901 0.2371
26.124741 95.906 0.1541
26.314051 95.912 0.0711
26.504732 95.918 -0.0121
26.696796 95.925 -0.0969
26.890253 95.932 -0.1847
27.085112 95.939 -0.2759
27.281382 95.946 -0.3714
27.479073 95.953 -0.4709
27.678198 95.959 -0.5750
27.878765 95.965 -0.6819
28.080786 95.969 -0.7904
28.284271 95.971 -0.8979
28.489231 95.973 -1.0016
28.695675 95.974 -1.1009
28.903616 95.975 -1.1939
29.113064 95.977 -1.2819
29.324028 95.979 -1.3644
29.536524 95.981 -1.4439
29.750557 95.985 -1.5215
29.966141 95.991 -1.6009
30.183289 95.997 -1.6866
30.402010 96.004 -1.7779
30.622314 96.011 -1.8757
30.844217 96.018 -1.9799
31.067726 96.025 -2.0908
31.292856 96.031 -2.2078
31.519617 96.037 -2.3317
31.748020 96.041 -2.4588
31.978081 96.044 -2.5862
32.209808 96.045 -2.7128
32.443211 96.046 -2.8370
32.678310 96.046 -2.9588
32.915108 96.046 -3.0779
33.153625 96.046 -3.1949
33.393871 96.046 -3.3100
33.635857 96.046 -3.4238
33.879597 96.046 -3.5366
34.125103 96.046 -3.6488
34.372387 96.046 -3.7608
34.621464 96.046 -3.8728
34.872345 96.046 -3.9852
35.125042 96.046 -4.0979
35.379574 96.046 -4.2107
35.635948 96.046 -4.3239
35.894180 96.046 -4.4375
36.154285 96.046 -4.5518
36.416275 96.046 -4.6668
36.680161 96.046 -4.7828
36.945961 96.046 -4.9005
37.213688 96.046 -5.0198
37.483353 96.046 -5.1406
37.754974 96.046 -5.2638
38.028561 96.046 -5.3903
38.304131 96.046 -5.5198
38.581699 96.046 -5.6522
38.861279 96.045 -5.7878
39.142883 96.044 -5.9279
39.426529 96.041 -6.0698
39.712231 96.037 -6.2119
40.000000 96.031 -6.3518
40.289856 96.025 -6.4862
40.581814 96.018 -6.6158
40.875885 96.011 -6.7398
41.172089 96.004 -6.8588
41.470440 95.997 -6.9729
41.770950 95.991 -7.0828
42.073643 95.985 -7.1880
42.378525 95.981 -7.2929
42.685616 95.979 -7.4015
42.994934 95.977 -7.5148
43.306492 95.975 -7.6357
43.620308 95.973 -7.7628
43.936401 95.970 -7.8966
44.254780 95.967 -8.0348
44.575470 95.963 -8.1760
44.898483 95.957 -8.3178
45.223835 95.950 -8.4570
45.551544 95.943 -8.5948
45.881630 95.936 -8.7310
46.214108 95.929 -8.8658
46.548996 95.922 -8.9990
46.886307 95.914 -9.1318
47.226067 95.907 -9.2647
47.568283 95.900 -9.3988
47.912983 95.893 -9.5354
48.260181 95.885 -9.6738
48.609894 95.876 -9.8138
48.962143 95.867 -9.9548
49.316940 95.858 -10.0966
49.674313 95.848 -10.2378
50.034271 95.837 -10.3771
50.396843 95.826 -10.5138
50.762039 95.814 -10.6454
51.129883 95.803 -10.7758
51.500389 95.793 -10.9088
51.873581 95.782 -11.0428
52.249481 95.770 -11.1779
52.628101 95.758 -11.3128
53.009464 95.746 -11.4453
53.393593 95.734 -11.5778
53.780506 95.722 -11.7122
54.170223 95.710 -11.8468
54.562763 95.696 -11.9803
54.958145 95.681 -12.1128
55.356396 95.668 -12.2435
55.757530 95.654 -12.3738
56.161572 95.640 -12.5048
56.568542 95.625 -12.6358
56.978462 95.610 -12.7665
57.391350 95.595 -12.8968
57.807232 95.580 -13.0266
58.226128 95.564 -13.1558
58.648056 95.548 -13.2846
59.073048 95.531 -13.4118
59.501114 95.513 -13.5359
59.932281 95.495 -13.6578
60.366577 95.478 -13.7781
60.804020 95.460 -13.8968
61.244629 95.442 -14.0137
61.688435 95.424 -14.1298
62.135452 95.407 -14.2459
62.585712 95.389 -14.3618
63.039234 95.371 -14.4779
63.496040 95.352 -14.5938
63.956161 95.333 -14.7092
64.419617 95.313 -14.8238
64.886421 95.294 -14.9377
65.356621 95.274 -15.0498
65.830215 95.253 -15.1593
66.307251 95.231 -15.2658
66.787743 95.210 -15.3680
67.271713 95.189 -15.4678
67.759193 95.168 -15.5669
68.250206 95.147 -15.6648
68.744774 95.126 -15.7616
69.242928 95.105 -15.8578
69.744690 95.085 -15.9541
70.250084 95.064 -16.0508
70.759148 95.042 -16.1493
71.271896 95.020 -16.2468
71.788361 94.997 -16.3407
72.308571 94.974 -16.4328
72.832550 94.952 -16.5250
73.360321 94.929 -16.6148
73.891922 94.905 -16.7005
74.427376 94.880 -16.7828
74.966705 94.856 -16.8614
75.509949 94.833 -16.9389
76.057121 94.810 -17.0189
76.608261 94.787 -17.0988
77.163399 94.763 -17.1773
77.722557 94.738 -17.2538
78.285767 94.714 -17.3272
78.853058 94.689 -17.3989
79.424461 94.665 -17.4707
80.000000 94.640 -17.5409
80.579712 94.615 -17.6086
81.163628 94.589 -17.6729
81.751770 94.563 -17.7320
82.344177 94.537 -17.7879
82.940880 94.512 -17.8415
83.541901 94.487 -17.8939
84.147285 94.463 -17.9474
84.757050 94.438 -17.9999
85.371231 94.413 -18.0494
85.989868 94.388 -18.0979
86.612984 94.364 -18.1461
87.240616 94.340 -18.1959
87.872803 94.317 -18.2507
88.509560 94.293 -18.3069
89.150940 94.267 -18.3623
89.796967 94.240 -18.4159
90.447670 94.214 -18.4658
91.103088 94.187 -18.5129
91.763260 94.160 -18.5580
92.428215 94.133 -18.5999
93.097992 94.105 -18.6372
93.772614 94.077 -18.6709
94.452133 94.050 -18.7014
95.136566 94.023 -18.7289
95.825966 93.996 -18.7534
96.520363 93.969 -18.7769
97.219788 93.944 -18.8010
97.924286 93.919 -18.8269
98.633881 93.894 -18.8577
99.348625 93.868 -18.8899
100.068542 93.841 -18.9214
100.793686 93.814 -18.9519
101.524078 93.786 -18.9805
102.259766 93.758 -19.0069
103.000778 93.730 -19.0311
103.747162 93.701 -19.0520
104.498962 93.672 -19.0682
105.256203 93.642 -19.0810
106.018929 93.613 -19.0910
106.787186 93.585 -19.0990
107.561012 93.556 -19.1057
108.340446 93.527 -19.1110
109.125526 93.499 -19.1152
109.916290 93.470 -19.1180
110.712791 93.440 -19.1200
111.515060 93.410 -19.1190
112.323143 93.380 -19.1128
113.137085 93.349 -19.1020
113.956924 93.319 -19.0862
114.782700 93.289 -19.0671
115.614464 93.260 -19.0462
116.452255 93.231 -19.0240
117.296112 93.202 -19.0018
118.146095 93.173 -18.9790
119.002228 93.144 -18.9562
119.864563 93.115 -18.9321
120.733154 93.085 -18.9063
121.608040 93.055 -18.8771
122.489258 93.025 -18.8426
123.376869 92.994 -18.8031
124.270905 92.963 -18.7575
125.171425 92.933 -18.7081
126.078468 92.904 -18.6566
126.992081 92.875 -18.6031
127.912323 92.846 -18.5482
128.839233 92.818 -18.4921
129.772842 92.790 -18.4354
130.713242 92.761 -18.3771
131.660431 92.733 -18.3165
132.614502 92.704 -18.2532
133.575485 92.675 -18.1864
134.543427 92.647 -18.1171
135.518387 92.619 -18.0468
136.500412 92.592 -17.9741
137.489548 92.564 -17.8985
138.485855 92.536 -17.8202
139.489380 92.508 -17.7392
140.500168 92.481 -17.6562
141.518295 92.454 -17.5721
142.543793 92.428 -17.4862
143.576721 92.401 -17.3982
144.617142 92.374 -17.3072
145.665100 92.347 -17.2117
146.720642 92.321 -17.1133
147.783844 92.296 -17.0125
148.854752 92.271 -16.9113
149.933411 92.247 -16.8119
151.019897 92.224 -16.7132
152.114243 92.200 -16.6153
153.216522 92.175 -16.5173
154.326797 92.151 -16.4181
155.445114 92.128 -16.3192
156.571533 92.105 -16.2226
157.706116 92.081 -16.1262
158.848923 92.056 -16.0293
160.000000 92.031 -15.9302
161.159424 92.006 -15.8267
162.327255 91.980 -15.7202
163.503540 91.955 -15.6114
164.688354 91.930 -15.5002
165.881760 91.904 -15.3876
167.083801 91.878 -15.2713
168.294571 91.851 -15.1495
169.514099 91.824 -15.0223
170.742462 91.798 -14.8892
171.979736 91.771 -14.7504
173.225967 91.744 -14.6059
174.481232 91.717 -14.4554
175.745605 91.690 -14.2990
177.019119 91.664 -14.1354
178.301880 91.638 -13.9626
179.593933 91.612 -13.7825
180.895340 91.588 -13.5953
182.206177 91.566 -13.4035
183.526520 91.545 -13.2099
184.856430 91.524 -13.0134
186.195984 91.504 -12.8129
187.545227 91.484 -12.6105
188.904266 91.467 -12.4079
190.273132 91.450 -12.2055
191.651932 91.434 -12.0050
193.040726 91.418 -11.8046
194.439575 91.402 -11.6027
195.848572 91.386 -11.3996
197.267761 91.371 -11.1953
198.697250 91.356 -10.9885
200.137085 91.341 -10.7784
201.587372 91.325 -10.5635
203.048157 91.309 -10.3422
204.519531 91.294 -10.1137
206.001556 91.279 -9.8759
207.494324 91.266 -9.6306
208.997925 91.254 -9.3787
210.512405 91.244 -9.1216
212.037857 91.235 -8.8616
213.574371 91.228 -8.5976
215.122025 91.222 -8.3289
216.680893 91.217 -8.0577
218.251053 91.215 -7.7861
219.832581 91.215 -7.5138
221.425583 91.215 -7.2411
223.030121 91.217 -6.9687
224.646286 91.222 -6.6966
226.274170 91.229 -6.4267
227.913849 91.237 -6.1610
229.565399 91.246 -5.8997
231.228928 91.258 -5.6428
232.904510 91.271 -5.3927
234.592224 91.286 -5.1517
236.292191 91.302 -4.9196
238.004456 91.319 -4.6973
239.729126 91.337 -4.4836
241.466309 91.354 -4.2778
243.216080 91.372 -4.0785
244.978516 91.390 -3.8844
246.753738 91.408 -3.6945
248.541809 91.426 -3.5081
250.342850 91.444 -3.3245
252.156937 91.463 -3.1426
253.984161 91.483 -2.9635
255.824646 91.504 -2.7874
257.678467 91.526 -2.6154
259.545685 91.548 -2.4495
261.426483 91.571 -2.2874
263.320862 91.594 -2.1268
265.229004 91.618 -1.9704
267.150970 91.644 -1.8200
269.086853 91.672 -1.6764
271.036774 91.699 -1.5414
273.000824 91.727 -1.4144
274.979095 91.756 -1.2945
276.971710 91.786 -1.1833
278.978760 91.816 -1.0827
281.000336 91.846 -0.9912
283.036591 91.875 -0.9089
285.087585 91.904 -0.8332
287.153442 91.933 -0.7615
289.234283 91.962 -0.6942
291.330200 91.990 -0.6312
293.441284 92.019 -0.5722
295.567688 92.048 -0.5163
297.709503 92.078 -0.4651
299.866821 92.108 -0.4191
302.039795 92.139 -0.3801
304.228485 92.171 -0.3504
306.433044 92.203 -0.3290
308.653595 92.234 -0.3161
310.890228 92.264 -0.3100
313.143066 92.294 -0.3092
315.412231 92.325 -0.3140
317.697845 92.355 -0.3248
320.000000 92.385 -0.3399
322.318848 92.414 -0.3576
324.654510 92.444 -0.3789
327.007080 92.475 -0.4032
329.376709 92.506 -0.4339
331.763519 92.538 -0.4746
334.167603 92.571 -0.5248
336.589142 92.603 -0.5850
339.028198 92.636 -0.6558
341.484924 92.669 -0.7381
343.959473 92.701 -0.8317
346.451935 92.731 -0.9377
348.962463 92.761 -1.0527
351.491211 92.789 -1.1731
354.038239 92.817 -1.3006
356.603760 92.844 -1.4359
359.187866 92.871 -1.5776
361.790680 92.896 -1.7248
364.412354 92.920 -1.8766
367.053040 92.943 -2.0305
369.712860 92.966 -2.1895
372.391968 92.988 -2.3557
375.090454 93.010 -2.5285
377.808533 93.031 -2.7088
380.546265 93.050 -2.8944
383.303864 93.068 -3.0836
386.081451 93.085 -3.2764
388.879150 93.101 -3.4722
391.697144 93.116 -3.6714
394.535522 93.130 -3.8748
397.394501 93.143 -4.0814
400.274170 93.155 -4.2908
403.174744 93.165 -4.5013
406.096313 93.174 -4.7110
409.039062 93.182 -4.9204
412.003113 93.190 -5.1293
414.988647 93.197 -5.3373
417.995850 93.203 -5.5435
421.024811 93.209 -5.7493
424.075714 93.215 -5.9553
427.148743 93.222 -6.1643
430.244049 93.229 -6.3789
433.361786 93.236 -6.6003
436.502106 93.243 -6.8306
439.665161 93.250 -7.0702
442.851166 93.256 -7.3208
446.060242 93.260 -7.5812
449.292572 93.263 -7.8521
452.548340 93.264 -8.1301
455.827698 93.262 -8.4131
459.130798 93.257 -8.6981
462.457855 93.251 -8.9807
465.809021 93.243 -9.2631
469.184448 93.234 -9.5465
472.584381 93.224 -9.8301
476.008911 93.212 -10.1138
479.458252 93.198 -10.3971
482.932617 93.184 -10.6786
486.432159 93.168 -10.9611
489.957031 93.152 -11.2473
493.507477 93.134 -11.5361
497.083618 93.114 -11.8280
500.685699 93.091 -12.1200
504.313873 93.067 -12.4092
507.968323 93.040 -12.6961
511.649292 93.012 -12.9805
515.356934 92.981 -13.2611
519.091370 92.948 -13.5367
522.852966 92.914 -13.8071
526.641724 92.878 -14.0722
530.458008 92.841 -14.3312
534.301941 92.802 -14.5832
538.173706 92.761 -14.8282
542.073547 92.718 -15.0663
546.001648 92.674 -15.2962
549.958191 92.629 -15.5173
553.943420 92.582 -15.7283
557.957520 92.533 -15.9277
562.000671 92.483 -16.1164
566.073181 92.433 -16.2942
570.175171 92.383 -16.4625
574.306885 92.332 -16.6218
578.468567 92.281 -16.7735
582.660400 92.230 -16.9184
586.882568 92.178 -17.0585
591.135376 92.127 -17.1962
595.419006 92.075 -17.3305
599.733643 92.021 -17.4614
604.079590 91.966 -17.5886
608.456970 91.911 -17.7113
612.866089 91.855 -17.8306
617.307190 91.798 -17.9479
621.780457 91.738 -18.0606
626.286133 91.676 -18.1665
630.824463 91.613 -18.2657
635.395691 91.549 -18.3580
640.000000 91.484 -18.4427
644.637695 91.417 -18.5198
649.309021 91.347 -18.5878
654.014160 91.275 -18.6458
658.753418 91.201 -18.6919
663.527039 91.126 -18.7235
668.335205 91.048 -18.7410
673.178284 90.969 -18.7437
678.056396 90.888 -18.7311
682.969849 90.806 -18.7030
687.918945 90.721 -18.6572
692.903870 90.635 -18.5911
697.924927 90.547 -18.5053
702.982422 90.459 -18.3997
708.076477 90.369 -18.2745
713.207520 90.279 -18.1313
718.375732 90.186 -17.9666
723.581360 90.092 -17.7781
728.824707 89.995 -17.5638
734.106079 89.898 -17.3217
739.425720 89.799 -17.0500
744.783936 89.699 -16.7478
750.180908 89.598 -16.4113
755.617065 89.496 -16.0367
761.092529 89.394 -15.6236
766.607727 89.294 -15.1697
772.162903 89.194 -14.6768
777.758301 89.096 -14.1463
783.394287 88.999 -13.5771
789.071045 88.905 -12.9679
794.789001 88.813 -12.3204
800.548340 88.725 -11.6354
806.349487 88.641 -10.9136
812.192627 88.561 -10.1557
818.078125 88.485 -9.3619
824.006226 88.414 -8.5322
829.977295 88.347 -7.6691
835.991699 88.286 -6.7741
842.049622 88.232 -5.8515
848.151428 88.186 -4.9052
854.297485 88.146 -3.9376
860.488098 88.112 -2.9520
866.723572 88.084 -1.9487
873.004211 88.063 -0.9296
879.330322 88.049 0.1063
885.702332 88.040 1.1587
892.120483 88.038 2.2291
898.585144 88.042 3.3201
905.096680 88.055 4.4279
911.655396 88.078 5.5514
918.261597 88.111 6.6848
924.915710 88.153 7.8244
931.618042 88.207 8.9629
938.368896 88.273 10.0942
945.168762 88.350 11.2108
952.017822 88.437 12.3048
958.916504 88.535 13.3720
965.865234 88.642 14.4055
972.864319 88.759 15.4064
979.914062 88.882 16.3734
987.014954 89.014 17.3056
994.167236 89.156 18.2050
