* Measurement data measured by REW V5.20.13
* Source: C:\Users\kurin\Desktop\Targets and Curves\Resolve\Img\Files\hifiman he-r7dx_SPL.txt
* Format: Comma/Tab/Space delimited data
* Dated: Aug 14, 2023 5:23:44 PM
* REW Settings:
*  C-weighting compensation: Off
*  Target level: 75.0 dB
* Note: ; Measurement imported from C:\Users\kurin\Desktop\Targets and Curves\Resolve\Img\Files\hifiman he-r7dx_SPL.txt Format: Comma/Tab/Space delimited data 623 values loaded, 5 Hz to 39,792 Hz log spaced 
* Measurement: hifiman he-r7dx_SPL
* Smoothing: 1/48 octave
* Frequency Step: 1/96 octave
* Start Frequency: 5.000 Hz
*
* Freq(Hz) SPL(dB) Phase(degrees)
5.000000 71.285 88.5110
5.036232 71.315 88.4888
5.072727 71.347 88.4650
5.109486 71.384 88.4374
5.146511 71.427 88.4060
5.183805 71.478 88.3692
5.221369 71.534 88.3300
5.259205 71.591 88.2916
5.297316 71.652 88.2520
5.335702 71.717 88.2094
5.374367 71.783 88.1660
5.413311 71.848 88.1239
5.452538 71.913 88.0820
5.492050 71.978 88.0396
5.531847 72.044 87.9970
5.571934 72.109 87.9541
5.612310 72.174 87.9110
5.652979 72.239 87.8676
5.693943 72.305 87.8240
5.735204 72.371 87.7801
5.776763 72.436 87.7360
5.818624 72.501 87.6917
5.860788 72.566 87.6470
5.903258 72.631 87.6016
5.946035 72.697 87.5560
5.989123 72.762 87.5106
6.032523 72.827 87.4650
6.076237 72.892 87.4187
6.120268 72.958 87.3720
6.164618 73.024 87.3251
6.209289 73.089 87.2780
6.254284 73.154 87.2307
6.299605 73.219 87.1830
6.345255 73.284 87.1347
6.391235 73.350 87.0860
6.437549 73.416 87.0371
6.484198 73.481 86.9880
6.531185 73.546 86.9387
6.578513 73.611 86.8890
6.626183 73.676 86.8387
6.674199 73.742 86.7880
6.722563 73.807 86.7372
6.771278 73.872 86.6860
6.820345 73.937 86.6342
6.869768 74.003 86.5820
6.919549 74.069 86.5297
6.969691 74.134 86.4770
7.020196 74.199 86.4237
7.071068 74.264 86.3700
7.122308 74.329 86.3162
7.173919 74.395 86.2620
7.225904 74.460 86.2072
7.278266 74.525 86.1520
7.331007 74.590 86.0967
7.384131 74.656 86.0410
7.437639 74.722 85.9847
7.491535 74.787 85.9280
7.545822 74.852 85.8712
7.600502 74.917 85.8140
7.655579 74.982 85.7563
7.711054 75.048 85.6980
7.766932 75.114 85.6392
7.823214 75.179 85.5800
7.879904 75.244 85.5208
7.937005 75.309 85.4610
7.994520 75.374 85.4003
8.052452 75.440 85.3390
8.110803 75.505 85.2777
8.169578 75.570 85.2160
8.228777 75.635 85.1538
8.288406 75.701 85.0910
8.348468 75.767 85.0277
8.408964 75.832 84.9640
8.469899 75.897 84.9003
8.531276 75.962 84.8360
8.593097 76.027 84.7708
8.655366 76.093 84.7050
8.718086 76.158 84.6393
8.781260 76.223 84.5730
8.844893 76.288 84.5058
8.908987 76.354 84.4380
8.973545 76.420 84.3703
9.038571 76.485 84.3020
9.104069 76.550 84.2328
9.170040 76.615 84.1630
9.236490 76.680 84.0933
9.303422 76.746 84.0230
9.370838 76.811 83.9518
9.438744 76.876 83.8800
9.507140 76.941 83.8077
9.576033 77.007 83.7350
9.645425 77.073 83.6623
9.715320 77.138 83.5890
9.785721 77.203 83.5144
9.856632 77.268 83.4390
9.928058 77.333 83.3638
10.000000 77.399 83.2880
10.072464 77.465 83.2114
10.145453 77.530 83.1341
10.218971 77.595 83.0563
10.293022 77.660 82.9780
10.367610 77.726 82.8993
10.442738 77.791 82.8200
10.518411 77.856 82.7399
10.594631 77.921 82.6590
10.671404 77.986 82.5773
10.748734 78.052 82.4950
10.826623 78.118 82.4129
10.905077 78.183 82.3301
10.984100 78.248 82.2459
11.063695 78.313 82.1611
11.143867 78.378 82.0758
11.224621 78.444 81.9900
11.305959 78.509 81.9039
11.387886 78.574 81.8171
11.470407 78.639 81.7294
11.553527 78.705 81.6410
11.637249 78.771 81.5519
11.721577 78.836 81.4621
11.806517 78.901 81.3715
11.892071 78.966 81.2801
11.978246 79.031 81.1879
12.065045 79.097 81.0950
12.152473 79.163 81.0013
12.240536 79.228 80.9070
12.329235 79.293 80.8124
12.418578 79.358 80.7171
12.508568 79.423 80.6204
12.599211 79.489 80.5231
12.690510 79.554 80.4255
12.782471 79.619 80.3271
12.875097 79.684 80.2275
12.968395 79.750 80.1271
13.062370 79.816 80.0259
13.157025 79.881 79.9240
13.252366 79.946 79.8214
13.348398 80.011 79.7181
13.445127 80.076 79.6140
13.542556 80.142 79.5091
13.640691 80.207 79.4036
13.739536 80.272 79.2970
13.839099 80.337 79.1890
13.939383 80.403 79.0801
14.040393 80.469 78.9709
14.142136 80.534 78.8610
14.244616 80.599 78.7500
14.347837 80.664 78.6380
14.451808 80.729 78.5250
14.556532 80.795 78.4111
14.662014 80.860 78.2960
14.768262 80.925 78.1801
14.875278 80.990 78.0636
14.983070 81.056 77.9461
15.091644 81.121 77.8276
15.201005 81.187 77.7081
15.311157 81.252 77.5876
15.422109 81.317 77.4661
15.533863 81.382 77.3436
15.646428 81.448 77.2201
15.759809 81.514 77.0956
15.874010 81.579 76.9701
15.989040 81.644 76.8437
16.104904 81.709 76.7161
16.221605 81.774 76.5872
16.339155 81.840 76.4572
16.457554 81.905 76.3261
16.576813 81.970 76.1941
16.696936 82.035 76.0611
16.817928 82.101 75.9271
16.939798 82.166 75.7922
17.062551 82.232 75.6562
17.186193 82.297 75.5187
17.310732 82.362 75.3801
17.436172 82.427 75.2406
17.562521 82.493 75.1001
17.689787 82.558 74.9582
17.817974 82.623 74.8152
17.947090 82.688 74.6711
18.077143 82.754 74.5261
18.208138 82.820 74.3802
18.340080 82.885 74.2332
18.472980 82.950 74.0846
18.606844 83.015 73.9351
18.741676 83.080 73.7854
18.877487 83.146 73.6352
19.014280 83.211 73.4839
19.152065 83.277 73.3322
19.290850 83.342 73.1801
19.430639 83.408 73.0281
19.571442 83.473 72.8768
19.713264 83.539 72.7252
19.856115 83.606 72.5729
20.000000 83.674 72.4192
20.144928 83.742 72.2638
20.290907 83.811 72.1052
20.437943 83.881 71.9422
20.586044 83.952 71.7731
20.735220 84.023 71.5960
20.885475 84.095 71.4102
21.036821 84.167 71.2148
21.189262 84.239 71.0083
21.342808 84.311 70.7884
21.497467 84.382 70.5573
21.653246 84.451 70.3142
21.810154 84.517 70.0653
21.968201 84.580 69.8157
22.127390 84.641 69.5683
22.287735 84.700 69.3270
22.449242 84.757 69.0942
22.611917 84.814 68.8738
22.775772 84.870 68.6652
22.940815 84.927 68.4704
23.107054 84.985 68.2852
23.274498 85.046 68.1086
23.443153 85.109 67.9342
23.613033 85.175 67.7564
23.784142 85.244 67.5722
23.956491 85.314 67.3773
24.130091 85.385 67.1702
24.304947 85.457 66.9472
24.481071 85.529 66.7103
24.658470 85.600 66.4588
24.837156 85.669 66.1974
25.017136 85.736 65.9305
25.198421 85.803 65.6583
25.381020 85.870 65.3823
25.564941 85.936 65.1033
25.750195 86.000 64.8225
25.936790 86.065 64.5394
26.124741 86.131 64.2548
26.314051 86.197 63.9644
26.504732 86.264 63.6651
26.696796 86.331 63.3544
26.890253 86.398 63.0285
27.085112 86.465 62.6884
27.281382 86.530 62.3324
27.479073 86.592 61.9645
27.678198 86.651 61.5870
27.878765 86.708 61.2035
28.080786 86.761 60.8171
28.284271 86.812 60.4315
28.489231 86.859 60.0512
28.695675 86.904 59.6775
28.903616 86.947 59.3136
29.113064 86.990 58.9585
29.324028 87.032 58.6125
29.536524 87.074 58.2744
29.750557 87.115 57.9435
29.966141 87.156 57.6184
30.183289 87.197 57.2976
30.402010 87.238 56.9804
30.622314 87.279 56.6655
30.844217 87.320 56.3524
31.067726 87.362 56.0401
31.292856 87.403 55.7285
31.519617 87.444 55.4171
31.748020 87.484 55.1054
31.978081 87.524 54.7920
32.209808 87.564 54.4784
32.443211 87.602 54.1653
32.678310 87.639 53.8544
32.915108 87.675 53.5474
33.153625 87.711 53.2444
33.393871 87.746 52.9453
33.635857 87.781 52.6524
33.879597 87.814 52.3683
34.125103 87.848 52.0914
34.372387 87.883 51.8219
34.621464 87.919 51.5574
34.872345 87.956 51.2947
35.125042 87.993 51.0353
35.379574 88.030 50.7803
35.635948 88.068 50.5273
35.894180 88.108 50.2748
36.154285 88.150 50.0214
36.416275 88.192 49.7657
36.680161 88.235 49.5064
36.945961 88.280 49.2432
37.213688 88.327 48.9714
37.483353 88.376 48.6863
37.754974 88.425 48.3875
38.028561 88.474 48.0728
38.304131 88.522 47.7424
38.581699 88.570 47.3957
38.861279 88.618 47.0326
39.142883 88.663 46.6509
39.426529 88.706 46.2566
39.712231 88.744 45.8530
40.000000 88.779 45.4446
40.289856 88.811 45.0367
40.581814 88.841 44.6306
40.875885 88.867 44.2278
41.172089 88.891 43.8326
41.470440 88.912 43.4494
41.770950 88.931 43.0786
42.073643 88.950 42.7243
42.378525 88.969 42.3805
42.685616 88.989 42.0430
42.994934 89.010 41.7105
43.306492 89.030 41.3804
43.620308 89.050 41.0515
43.936401 89.071 40.7229
44.254780 89.093 40.3905
44.575470 89.114 40.0484
44.898483 89.133 39.7016
45.223835 89.149 39.3508
45.551544 89.162 39.0025
45.881630 89.171 38.6612
46.214108 89.178 38.3325
46.548996 89.181 38.0224
46.886307 89.183 37.7334
47.226067 89.184 37.4709
47.568283 89.186 37.2324
47.912983 89.189 37.0186
48.260181 89.194 36.8253
48.609894 89.202 36.6511
48.962143 89.213 36.4882
49.316940 89.229 36.3309
49.674313 89.250 36.1713
50.034271 89.274 35.9993
50.396843 89.301 35.8163
50.762039 89.328 35.6205
51.129883 89.356 35.4114
51.500389 89.385 35.1868
51.873581 89.414 34.9494
52.249481 89.440 34.6999
52.628101 89.465 34.4424
53.009464 89.489 34.1816
53.393593 89.513 33.9165
53.780506 89.536 33.6475
54.170223 89.558 33.3755
54.562763 89.579 33.1009
54.958145 89.598 32.8244
55.356396 89.616 32.5461
55.757530 89.633 32.2674
56.161572 89.648 31.9888
56.568542 89.662 31.7135
56.978462 89.674 31.4447
57.391350 89.684 31.1835
57.807232 89.693 30.9318
58.226128 89.702 30.6904
58.648056 89.710 30.4610
59.073048 89.718 30.2424
59.501114 89.726 30.0338
59.932281 89.735 29.8353
60.366577 89.744 29.6466
60.804020 89.753 29.4683
61.244629 89.763 29.3018
61.688435 89.775 29.1453
62.135452 89.789 28.9975
62.585712 89.805 28.8572
63.039234 89.823 28.7242
63.496040 89.843 28.5942
63.956161 89.867 28.4650
64.419617 89.894 28.3312
64.886421 89.925 28.1889
65.356621 89.959 28.0323
65.830215 89.996 27.8549
66.307251 90.035 27.6554
66.787743 90.074 27.4299
67.271713 90.113 27.1795
67.759193 90.152 26.9033
68.250206 90.189 26.6036
68.744774 90.223 26.2801
69.242928 90.254 25.9396
69.744690 90.280 25.5874
70.250084 90.303 25.2277
70.759148 90.321 24.8649
71.271896 90.336 24.5037
71.788361 90.346 24.1491
72.308571 90.353 23.8046
72.832550 90.357 23.4757
73.360321 90.360 23.1616
73.891922 90.361 22.8640
74.427376 90.362 22.5815
74.966705 90.362 22.3137
75.509949 90.362 22.0594
76.057121 90.362 21.8173
76.608261 90.362 21.5874
77.163399 90.362 21.3697
77.722557 90.362 21.1644
78.285767 90.363 20.9718
78.853058 90.364 20.7924
79.424461 90.366 20.6271
80.000000 90.370 20.4743
80.579712 90.376 20.3339
81.163628 90.384 20.2012
81.751770 90.396 20.0724
82.344177 90.411 19.9453
82.940880 90.428 19.8174
83.541901 90.448 19.6863
84.147285 90.471 19.5501
84.757050 90.496 19.4043
85.371231 90.524 19.2435
85.989868 90.554 19.0684
86.612984 90.584 18.8778
87.240616 90.614 18.6724
87.872803 90.646 18.4534
88.509560 90.679 18.2185
89.150940 90.711 17.9653
89.796967 90.743 17.6956
90.447670 90.773 17.4099
91.103088 90.803 17.1096
91.763260 90.832 16.7959
92.428215 90.859 16.4697
93.097992 90.884 16.1319
93.772614 90.908 15.7837
94.452133 90.930 15.4259
95.136566 90.949 15.0608
95.825966 90.966 14.6901
96.520363 90.980 14.3168
97.219788 90.991 13.9441
97.924286 91.000 13.5728
98.633881 91.007 13.2044
99.348625 91.013 12.8407
100.068542 91.016 12.4836
100.793686 91.018 12.1339
101.524078 91.019 11.7936
102.259766 91.020 11.4608
103.000778 91.020 11.1343
103.747162 91.020 10.8136
104.498962 91.020 10.4981
105.256203 91.020 10.1866
106.018929 91.020 9.8780
106.787186 91.020 9.5716
107.561012 91.020 9.2665
108.340446 91.020 8.9625
109.125526 91.020 8.6593
109.916290 91.020 8.3566
110.712791 91.020 8.0539
111.515060 91.020 7.7506
112.323143 91.020 7.4465
113.137085 91.020 7.1406
113.956924 91.020 6.8328
114.782700 91.020 6.5218
115.614464 91.020 6.2066
116.452255 91.020 5.8866
117.296112 91.019 5.5612
118.146095 91.018 5.2297
119.002228 91.016 4.8907
119.864563 91.013 4.5459
120.733154 91.007 4.1962
121.608040 91.000 3.8438
122.489258 90.991 3.4907
123.376869 90.981 3.1379
124.270905 90.968 2.7858
125.171425 90.954 2.4366
126.078468 90.938 2.0928
126.992081 90.920 1.7548
127.912323 90.901 1.4243
128.839233 90.881 1.1007
129.772842 90.860 0.7836
130.713242 90.839 0.4726
131.660431 90.817 0.1669
132.614502 90.793 -0.1322
133.575485 90.768 -0.4236
134.543427 90.742 -0.7065
135.518387 90.716 -0.9789
136.500412 90.690 -1.2435
137.489548 90.664 -1.5035
138.485855 90.638 -1.7554
139.489380 90.609 -1.9964
140.500168 90.580 -2.2275
141.518295 90.554 -2.4477
142.543793 90.529 -2.6605
143.576721 90.503 -2.8699
144.617142 90.478 -3.0736
145.665100 90.453 -3.2693
146.720642 90.429 -3.4605
147.783844 90.407 -3.6495
148.854752 90.386 -3.8375
149.933411 90.365 -4.0253
151.019897 90.346 -4.2155
152.114243 90.329 -4.4105
153.216522 90.313 -4.6124
154.326797 90.297 -4.8250
155.445114 90.280 -5.0465
156.571533 90.263 -5.2757
157.706116 90.245 -5.5144
158.848923 90.227 -5.7650
160.000000 90.207 -6.0244
161.159424 90.183 -6.2921
162.327255 90.156 -6.5624
163.503540 90.127 -6.8299
164.688354 90.095 -7.0934
165.881760 90.060 -7.3519
167.083801 90.021 -7.5994
168.294571 89.978 -7.8314
169.514099 89.933 -8.0425
170.742462 89.886 -8.2254
171.979736 89.837 -8.3816
173.225967 89.789 -8.5106
174.481232 89.741 -8.6118
175.745605 89.694 -8.6828
177.019119 89.649 -8.7279
178.301880 89.609 -8.7474
179.593933 89.573 -8.7510
180.895340 89.544 -8.7463
182.206177 89.519 -8.7400
183.526520 89.498 -8.7404
184.856430 89.482 -8.7510
186.195984 89.470 -8.7774
187.545227 89.461 -8.8219
188.904266 89.453 -8.8901
190.273132 89.445 -8.9778
191.651932 89.436 -9.0835
193.040726 89.427 -9.2046
194.439575 89.417 -9.3389
195.848572 89.406 -9.4836
197.267761 89.392 -9.6366
198.697250 89.377 -9.7946
200.137085 89.361 -9.9528
201.587372 89.344 -10.1126
203.048157 89.327 -10.2741
204.519531 89.309 -10.4365
206.001556 89.290 -10.5989
207.494324 89.271 -10.7616
208.997925 89.252 -10.9240
210.512405 89.233 -11.0876
212.037857 89.214 -11.2529
213.574371 89.195 -11.4226
215.122025 89.177 -11.5987
216.680893 89.160 -11.7835
218.251053 89.142 -11.9805
219.832581 89.124 -12.1874
221.425583 89.104 -12.4026
223.030121 89.082 -12.6274
224.646286 89.061 -12.8628
226.274170 89.038 -13.1084
227.913849 89.012 -13.3661
229.565399 88.982 -13.6293
231.228928 88.949 -13.8925
232.904510 88.912 -14.1542
234.592224 88.873 -14.4120
236.292191 88.832 -14.6643
238.004456 88.788 -14.9105
239.729126 88.741 -15.1464
241.466309 88.691 -15.3683
243.216080 88.638 -15.5745
244.978516 88.585 -15.7606
246.753738 88.531 -15.9305
248.541809 88.479 -16.0856
250.342850 88.427 -16.2296
252.156937 88.376 -16.3661
253.984161 88.326 -16.4976
255.824646 88.278 -16.6261
257.678467 88.231 -16.7577
259.545685 88.186 -16.8984
261.426483 88.141 -17.0506
263.320862 88.096 -17.2185
265.229004 88.049 -17.4015
267.150970 88.001 -17.6010
269.086853 87.949 -17.8144
271.036774 87.893 -18.0426
273.000824 87.831 -18.2763
274.979095 87.762 -18.5099
276.971710 87.685 -18.7324
278.978760 87.602 -18.9334
281.000336 87.512 -19.1056
283.036591 87.417 -19.2399
285.087585 87.317 -19.3308
287.153442 87.212 -19.3695
289.234283 87.105 -19.3561
291.330200 87.000 -19.2847
293.441284 86.897 -19.1644
295.567688 86.799 -18.9990
297.709503 86.705 -18.7986
299.866821 86.618 -18.5707
302.039795 86.536 -18.3257
304.228485 86.463 -18.0731
306.433044 86.395 -17.8237
308.653595 86.333 -17.5905
310.890228 86.275 -17.3766
313.143066 86.218 -17.1898
315.412231 86.161 -17.0284
317.697845 86.103 -16.8957
320.000000 86.042 -16.7843
322.318848 85.975 -16.6939
324.654510 85.900 -16.6063
327.007080 85.815 -16.5095
329.376709 85.721 -16.3845
331.763519 85.617 -16.2117
334.167603 85.506 -15.9798
336.589142 85.390 -15.6727
339.028198 85.270 -15.2853
341.484924 85.150 -14.8033
343.959473 85.034 -14.2377
346.451935 84.928 -13.5875
348.962463 84.832 -12.8741
351.491211 84.750 -12.1125
354.038239 84.682 -11.3213
356.603760 84.629 -10.5197
359.187866 84.588 -9.7214
361.790680 84.561 -8.9445
364.412354 84.543 -8.1951
367.053040 84.532 -7.4869
369.712860 84.527 -6.8150
372.391968 84.524 -6.1809
375.090454 84.523 -5.5787
377.808533 84.523 -5.0049
380.546265 84.523 -4.4546
383.303864 84.523 -3.9225
386.081451 84.523 -3.4065
388.879150 84.523 -2.9031
391.697144 84.523 -2.4105
394.535522 84.523 -1.9257
397.394501 84.523 -1.4484
400.274170 84.523 -0.9775
403.174744 84.523 -0.5115
406.096313 84.523 -0.0486
409.039062 84.523 0.4116
412.003113 84.523 0.8695
414.988647 84.523 1.3265
417.995850 84.523 1.7835
421.024811 84.523 2.2415
424.075714 84.523 2.7016
427.148743 84.523 3.1645
430.244049 84.523 3.6307
433.361786 84.523 4.1025
436.502106 84.523 4.5818
439.665161 84.523 5.0695
442.851166 84.524 5.5663
446.060242 84.525 6.0744
449.292572 84.526 6.5967
452.548340 84.529 7.1323
455.827698 84.535 7.6816
459.130798 84.543 8.2432
462.457855 84.553 8.8159
465.809021 84.565 9.4001
469.184448 84.580 9.9966
472.584381 84.599 10.6021
476.008911 84.622 11.2147
479.458252 84.649 11.8320
482.932617 84.679 12.4508
486.432159 84.713 13.0720
489.957031 84.750 13.6962
493.507477 84.791 14.3211
497.083618 84.837 14.9449
500.685699 84.888 15.5660
504.313873 84.942 16.1825
507.968323 85.001 16.7930
511.649292 85.064 17.3962
515.356934 85.133 17.9891
519.091370 85.205 18.5692
522.852966 85.283 19.1332
526.641724 85.366 19.6775
530.458008 85.453 20.1993
534.301941 85.543 20.6941
538.173706 85.637 21.1625
542.073547 85.732 21.6035
546.001648 85.830 22.0176
549.958191 85.929 22.4044
553.943420 86.031 22.7659
557.957520 86.132 23.1034
562.000671 86.235 23.4180
566.073181 86.339 23.7116
570.175171 86.445 23.9821
574.306885 86.552 24.2273
578.468567 86.660 24.4493
582.660400 86.767 24.6507
586.882568 86.876 24.8284
591.135376 86.987 24.9808
595.419006 87.100 25.1066
599.733643 87.211 25.2022
604.079590 87.322 25.2738
608.456970 87.430 25.3272
612.866089 87.539 25.3599
617.307190 87.649 25.3718
621.780457 87.760 25.3621
626.286133 87.869 25.3291
630.824463 87.978 25.2752
635.395691 88.086 25.2039
640.000000 88.195 25.1104
644.637695 88.305 24.9905
649.309021 88.415 24.8455
654.014160 88.522 24.6737
658.753418 88.627 24.4797
663.527039 88.730 24.2689
668.335205 88.833 24.0378
673.178284 88.936 23.7846
678.056396 89.039 23.5090
682.969849 89.139 23.2091
687.918945 89.237 22.8882
692.903870 89.333 22.5500
697.924927 89.429 22.1903
702.982422 89.525 21.8060
708.076477 89.619 21.3965
713.207520 89.709 20.9591
718.375732 89.797 20.4977
723.581360 89.882 20.0163
728.824707 89.965 19.5128
734.106079 90.045 18.9862
739.425720 90.123 18.4370
744.783936 90.195 17.8640
750.180908 90.264 17.2711
755.617065 90.328 16.6625
761.092529 90.389 16.0373
766.607727 90.445 15.3950
772.162903 90.497 14.7394
777.758301 90.542 14.0727
783.394287 90.582 13.3994
789.071045 90.617 12.7251
794.789001 90.648 12.0484
800.548340 90.675 11.3688
806.349487 90.698 10.6884
812.192627 90.716 10.0089
818.078125 90.730 9.3305
824.006226 90.740 8.6541
829.977295 90.747 7.9794
835.991699 90.749 7.3054
842.049622 90.747 6.6355
848.151428 90.741 5.9729
854.297485 90.730 5.3174
860.488098 90.716 4.6690
866.723572 90.698 4.0293
873.004211 90.676 3.3995
879.330322 90.650 2.7812
885.702332 90.621 2.1772
892.120483 90.589 1.5851
898.585144 90.555 1.0031
905.096680 90.518 0.4321
911.655396 90.477 -0.1279
918.261597 90.433 -0.6760
924.915710 90.387 -1.2114
931.618042 90.337 -1.7341
938.368896 90.284 -2.2438
945.168762 90.228 -2.7402
952.017822 90.171 -3.2226
958.916504 90.110 -3.6912
965.865234 90.046 -4.1472
972.864319 89.978 -4.5874
979.914062 89.908 -5.0093
987.014954 89.834 -5.4125
994.167236 89.758 -5.7959
