* Measurement data measured by REW V5.20.13
* Source: C:\Users\kurin\Desktop\Targets and Curves\Resolve\Img\Files\Harmonicdyne helios_SPL.txt
* Format: Comma/Tab/Space delimited data
* Dated: Aug 14, 2023 4:42:11 PM
* REW Settings:
*  C-weighting compensation: Off
*  Target level: 75.0 dB
* Note: ; Measurement imported from C:\Users\kurin\Desktop\Targets and Curves\Resolve\Img\Files\Harmonicdyne helios_SPL.txt Format: Comma/Tab/Space delimited data 623 values loaded, 5 Hz to 39,792 Hz log spaced 
* Measurement: Harmonicdyne helios_SPL
* Smoothing: 1/48 octave
* Frequency Step: 1/96 octave
* Start Frequency: 5.000 Hz
*
* Freq(Hz) SPL(dB) Phase(degrees)
5.000000 70.758 74.7320
5.036232 70.782 74.7242
5.072727 70.808 74.7160
5.109486 70.838 74.7070
5.146511 70.872 74.6970
5.183805 70.914 74.6851
5.221369 70.959 74.6730
5.259205 71.005 74.6628
5.297316 71.054 74.6530
5.335702 71.106 74.6425
5.374367 71.160 74.6320
5.413311 71.213 74.6219
5.452538 71.266 74.6120
5.492050 71.318 74.6024
5.531847 71.371 74.5930
5.571934 71.424 74.5835
5.612310 71.477 74.5740
5.652979 71.530 74.5646
5.693943 71.583 74.5550
5.735204 71.636 74.5450
5.776763 71.688 74.5350
5.818624 71.741 74.5255
5.860788 71.794 74.5160
5.903258 71.847 74.5060
5.946035 71.900 74.4960
5.989123 71.952 74.4865
6.032523 72.005 74.4770
6.076237 72.058 74.4671
6.120268 72.111 74.4570
6.164618 72.164 74.4471
6.209289 72.217 74.4370
6.254284 72.269 74.4265
6.299605 72.322 74.4160
6.345255 72.375 74.4060
6.391235 72.428 74.3960
6.437549 72.481 74.3856
6.484198 72.534 74.3750
6.531185 72.586 74.3645
6.578513 72.639 74.3540
6.626183 72.692 74.3435
6.674199 72.745 74.3330
6.722563 72.798 74.3225
6.771278 72.851 74.3120
6.820345 72.903 74.3016
6.869768 72.956 74.2910
6.919549 73.009 74.2800
6.969691 73.062 74.2690
7.020196 73.115 74.2586
7.071068 73.168 74.2480
7.122308 73.220 74.2366
7.173919 73.273 74.2250
7.225904 73.326 74.2139
7.278266 73.379 74.2030
7.331007 73.432 74.1921
7.384131 73.485 74.1810
7.437639 73.537 74.1696
7.491535 73.590 74.1580
7.545822 73.643 74.1465
7.600502 73.696 74.1350
7.655579 73.749 74.1235
7.711054 73.802 74.1120
7.766932 73.854 74.1006
7.823214 73.907 74.0890
7.879904 73.960 74.0771
7.937005 74.013 74.0650
7.994520 74.066 74.0530
8.052452 74.119 74.0410
8.110803 74.171 74.0290
8.169578 74.224 74.0170
8.228777 74.277 74.0050
8.288406 74.330 73.9930
8.348468 74.383 73.9811
8.408964 74.436 73.9690
8.469899 74.488 73.9566
8.531276 74.541 73.9440
8.593097 74.594 73.9315
8.655366 74.647 73.9190
8.718086 74.700 73.9066
8.781260 74.753 73.8940
8.844893 74.806 73.8810
8.908987 74.859 73.8680
8.973545 74.911 73.8555
9.038571 74.964 73.8430
9.104069 75.017 73.8301
9.170040 75.070 73.8170
9.236490 75.123 73.8041
9.303422 75.176 73.7910
9.370838 75.228 73.7775
9.438744 75.281 73.7640
9.507140 75.334 73.7510
9.576033 75.387 73.7380
9.645425 75.440 73.7246
9.715320 75.493 73.7110
9.785721 75.545 73.6975
9.856632 75.598 73.6840
9.928058 75.651 73.6705
10.000000 75.704 73.6570
10.072464 75.757 73.6436
10.145453 75.810 73.6300
10.218971 75.862 73.6161
10.293022 75.915 73.6020
10.367610 75.968 73.5880
10.442738 76.021 73.5740
10.518411 76.074 73.5600
10.594631 76.127 73.5460
10.671404 76.179 73.5320
10.748734 76.232 73.5180
10.826623 76.285 73.5040
10.905077 76.338 73.4900
10.984100 76.391 73.4761
11.063695 76.444 73.4620
11.143867 76.496 73.4476
11.224621 76.549 73.4330
11.305959 76.602 73.4185
11.387886 76.655 73.4040
11.470407 76.708 73.3895
11.553527 76.761 73.3750
11.637249 76.813 73.3605
11.721577 76.866 73.3460
11.806517 76.919 73.3315
11.892071 76.972 73.3170
11.978246 77.025 73.3025
12.065045 77.078 73.2880
12.152473 77.131 73.2736
12.240536 77.183 73.2590
12.329235 77.236 73.2440
12.418578 77.289 73.2290
12.508568 77.342 73.2144
12.599211 77.395 73.2000
12.690510 77.447 73.1856
12.782471 77.500 73.1710
12.875097 77.553 73.1560
12.968395 77.606 73.1410
13.062370 77.659 73.1265
13.157025 77.712 73.1120
13.252366 77.764 73.0970
13.348398 77.817 73.0820
13.445127 77.870 73.0675
13.542556 77.923 73.0530
13.640691 77.976 73.0385
13.739536 78.029 73.0240
13.839099 78.081 73.0095
13.939383 78.134 72.9950
14.040393 78.187 72.9805
14.142136 78.240 72.9660
14.244616 78.293 72.9514
14.347837 78.346 72.9370
14.451808 78.398 72.9229
14.556532 78.451 72.9090
14.662014 78.504 72.8950
14.768262 78.557 72.8810
14.875278 78.610 72.8670
14.983070 78.663 72.8530
15.091644 78.715 72.8394
15.201005 78.768 72.8260
15.311157 78.821 72.8125
15.422109 78.874 72.7990
15.533863 78.927 72.7854
15.646428 78.980 72.7720
15.759809 79.032 72.7594
15.874010 79.085 72.7470
15.989040 79.138 72.7345
16.104904 79.191 72.7220
16.221605 79.244 72.7094
16.339155 79.297 72.6970
16.457554 79.350 72.6854
16.576813 79.403 72.6740
16.696936 79.455 72.6624
16.817928 79.508 72.6510
16.939798 79.561 72.6398
17.062551 79.614 72.6290
17.186193 79.667 72.6188
17.310732 79.720 72.6090
17.436172 79.772 72.5994
17.562521 79.825 72.5900
17.689787 79.878 72.5808
17.817974 79.931 72.5720
17.947090 79.984 72.5638
18.077143 80.037 72.5560
18.208138 80.089 72.5488
18.340080 80.142 72.5420
18.472980 80.195 72.5358
18.606844 80.248 72.5300
18.741676 80.301 72.5246
18.877487 80.354 72.5200
19.014280 80.406 72.5166
19.152065 80.459 72.5140
19.290850 80.512 72.5119
19.430639 80.565 72.5110
19.571442 80.618 72.5116
19.713264 80.671 72.5140
19.856115 80.723 72.5179
20.000000 80.776 72.5250
20.144928 80.829 72.5367
20.290907 80.882 72.5530
20.437943 80.937 72.5750
20.586044 80.993 72.6000
20.735220 81.050 72.6285
20.885475 81.111 72.6520
21.036821 81.177 72.6662
21.189262 81.247 72.6580
21.342808 81.319 72.6134
21.497467 81.392 72.5311
21.653246 81.462 72.4029
21.810154 81.527 72.2362
21.968201 81.584 72.0304
22.127390 81.632 71.8023
22.287735 81.667 71.5592
22.449242 81.689 71.3292
22.611917 81.695 71.1349
22.775772 81.688 71.0001
22.940815 81.670 70.9538
23.107054 81.646 71.0029
23.274498 81.619 71.1659
23.443153 81.594 71.4376
23.613033 81.576 71.8250
23.784142 81.569 72.3095
23.956491 81.578 72.8844
24.130091 81.605 73.5202
24.304947 81.655 74.1949
24.481071 81.725 74.8801
24.658470 81.816 75.5472
24.837156 81.926 76.1752
25.017136 82.054 76.7372
25.198421 82.194 77.2225
25.381020 82.343 77.6102
25.564941 82.496 77.9048
25.750195 82.649 78.0991
25.936790 82.800 78.2069
26.124741 82.945 78.2336
26.314051 83.084 78.1971
26.504732 83.213 78.1110
26.696796 83.333 77.9932
26.890253 83.444 77.8627
27.085112 83.548 77.7291
27.281382 83.646 77.6081
27.479073 83.741 77.5011
27.678198 83.834 77.4162
27.878765 83.926 77.3501
28.080786 84.020 77.3037
28.284271 84.116 77.2720
28.489231 84.215 77.2536
28.695675 84.318 77.2380
28.903616 84.428 77.2172
29.113064 84.543 77.1821
29.324028 84.662 77.1212
29.536524 84.784 77.0331
29.750557 84.907 76.9135
29.966141 85.031 76.7602
30.183289 85.157 76.5697
30.402010 85.282 76.3423
30.622314 85.405 76.0753
30.844217 85.525 75.7744
31.067726 85.641 75.4433
31.292856 85.754 75.0856
31.519617 85.863 74.7044
31.748020 85.967 74.3045
31.978081 86.066 73.8899
32.209808 86.160 73.4666
32.443211 86.248 73.0404
32.678310 86.332 72.6155
32.915108 86.412 72.1975
33.153625 86.488 71.7885
33.393871 86.561 71.3932
33.635857 86.633 71.0106
33.879597 86.704 70.6418
34.125103 86.774 70.2845
34.372387 86.844 69.9384
34.621464 86.915 69.5985
34.872345 86.988 69.2603
35.125042 87.061 68.9214
35.379574 87.134 68.5784
35.635948 87.207 68.2304
35.894180 87.280 67.8752
36.154285 87.353 67.5135
36.416275 87.425 67.1444
36.680161 87.495 66.7706
36.945961 87.564 66.3943
37.213688 87.631 66.0156
37.483353 87.697 65.6346
37.754974 87.763 65.2526
38.028561 87.827 64.8708
38.304131 87.890 64.4895
38.581699 87.953 64.1099
38.861279 88.015 63.7306
39.142883 88.077 63.3503
39.426529 88.138 62.9695
39.712231 88.199 62.5892
40.000000 88.260 62.2066
40.289856 88.322 61.8197
40.581814 88.384 61.4276
40.875885 88.445 61.0288
41.172089 88.506 60.6226
41.470440 88.567 60.2084
41.770950 88.627 59.7837
42.073643 88.687 59.3453
42.378525 88.746 58.8956
42.685616 88.801 58.4359
42.994934 88.855 57.9667
43.306492 88.908 57.4888
43.620308 88.959 57.0027
43.936401 89.006 56.5080
44.254780 89.049 56.0088
44.575470 89.089 55.5090
44.898483 89.127 55.0098
45.223835 89.162 54.5131
45.551544 89.193 54.0207
45.881630 89.221 53.5346
46.214108 89.246 53.0567
46.548996 89.269 52.5887
46.886307 89.290 52.1327
47.226067 89.308 51.6920
47.568283 89.325 51.2657
47.912983 89.341 50.8556
48.260181 89.357 50.4576
48.609894 89.373 50.0690
48.962143 89.389 49.6886
49.316940 89.404 49.3151
49.674313 89.419 48.9466
50.034271 89.435 48.5807
50.396843 89.450 48.2166
50.762039 89.463 47.8515
51.129883 89.475 47.4886
51.500389 89.485 47.1295
51.873581 89.493 46.7756
52.249481 89.499 46.4281
52.628101 89.502 46.0896
53.009464 89.503 45.7618
53.393593 89.502 45.4475
53.780506 89.498 45.1490
54.170223 89.491 44.8694
54.562763 89.482 44.6118
54.958145 89.472 44.3783
55.356396 89.460 44.1713
55.757530 89.447 43.9943
56.161572 89.432 43.8512
56.568542 89.418 43.7431
56.978462 89.406 43.6733
57.391350 89.395 43.6390
57.807232 89.387 43.6392
58.226128 89.382 43.6719
58.648056 89.383 43.7371
59.073048 89.389 43.8278
59.501114 89.402 43.9393
59.932281 89.421 44.0648
60.366577 89.447 44.1978
60.804020 89.481 44.3328
61.244629 89.522 44.4634
61.688435 89.570 44.5848
62.135452 89.623 44.6916
62.585712 89.682 44.7789
63.039234 89.747 44.8399
63.496040 89.816 44.8740
63.956161 89.887 44.8785
64.419617 89.962 44.8531
64.886421 90.040 44.7978
65.356621 90.120 44.7092
65.830215 90.201 44.5816
66.307251 90.281 44.4213
66.787743 90.359 44.2326
67.271713 90.436 44.0164
67.759193 90.513 43.7747
68.250206 90.589 43.5085
68.744774 90.662 43.2171
69.242928 90.732 42.9076
69.744690 90.798 42.5876
70.250084 90.863 42.2556
70.759148 90.928 41.9132
71.271896 90.991 41.5597
71.788361 91.051 41.1940
72.308571 91.109 40.8197
72.832550 91.165 40.4405
73.360321 91.220 40.0547
73.891922 91.274 39.6614
74.427376 91.326 39.2618
74.966705 91.376 38.8563
75.509949 91.425 38.4457
76.057121 91.472 38.0313
76.608261 91.518 37.6118
77.163399 91.563 37.1862
77.722557 91.607 36.7549
78.285767 91.648 36.3172
78.853058 91.687 35.8759
79.424461 91.724 35.4336
80.000000 91.759 34.9899
80.579712 91.793 34.5447
81.163628 91.826 34.0998
81.751770 91.855 33.6560
82.344177 91.883 33.2159
82.940880 91.910 32.7844
83.541901 91.936 32.3559
84.147285 91.963 31.9264
84.757050 91.990 31.4958
85.371231 92.015 31.0623
85.989868 92.039 30.6269
86.612984 92.062 30.1910
87.240616 92.084 29.7519
87.872803 92.105 29.3057
88.509560 92.125 28.8569
89.150940 92.141 28.4074
89.796967 92.155 27.9609
90.447670 92.166 27.5217
91.103088 92.176 27.0899
91.763260 92.184 26.6670
92.428215 92.191 26.2538
93.097992 92.197 25.8527
93.772614 92.203 25.4608
94.452133 92.210 25.0769
95.136566 92.217 24.6978
95.825966 92.224 24.3197
96.520363 92.232 23.9428
97.219788 92.240 23.5666
97.924286 92.247 23.1898
98.633881 92.253 22.8104
99.348625 92.259 22.4308
100.068542 92.263 22.0520
100.793686 92.266 21.6759
101.524078 92.268 21.3050
102.259766 92.269 20.9389
103.000778 92.270 20.5783
103.747162 92.270 20.2227
104.498962 92.270 19.8718
105.256203 92.270 19.5247
106.018929 92.270 19.1807
106.787186 92.270 18.8387
107.561012 92.270 18.4970
108.340446 92.270 18.1556
109.125526 92.269 17.8139
109.916290 92.268 17.4716
110.712791 92.267 17.1274
111.515060 92.264 16.7837
112.323143 92.260 16.4422
113.137085 92.254 16.1047
113.956924 92.247 15.7742
114.782700 92.239 15.4498
115.614464 92.232 15.1320
116.452255 92.224 14.8196
117.296112 92.216 14.5121
118.146095 92.208 14.2086
119.002228 92.201 13.9089
119.864563 92.193 13.6108
120.733154 92.185 13.3111
121.608040 92.176 13.0126
122.489258 92.167 12.7166
123.376869 92.156 12.4247
124.270905 92.144 12.1378
125.171425 92.131 11.8595
126.078468 92.117 11.5944
126.992081 92.102 11.3406
127.912323 92.089 11.0990
128.839233 92.077 10.8655
129.772842 92.067 10.6370
130.713242 92.058 10.4115
131.660431 92.050 10.1869
132.614502 92.044 9.9596
133.575485 92.040 9.7250
134.543427 92.036 9.4845
135.518387 92.030 9.2371
136.500412 92.024 8.9865
137.489548 92.017 8.7361
138.485855 92.009 8.4856
139.489380 92.001 8.2357
140.500168 91.992 7.9865
141.518295 91.983 7.7379
142.543793 91.974 7.4916
143.576721 91.964 7.2501
144.617142 91.953 7.0115
145.665100 91.943 6.7757
146.720642 91.934 6.5407
147.783844 91.925 6.3044
148.854752 91.916 6.0666
149.933411 91.907 5.8257
151.019897 91.897 5.5836
152.114243 91.886 5.3415
153.216522 91.874 5.0997
154.326797 91.863 4.8589
155.445114 91.852 4.6186
156.571533 91.839 4.3774
157.706116 91.825 4.1385
158.848923 91.810 3.9055
160.000000 91.795 3.6766
161.159424 91.780 3.4520
162.327255 91.766 3.2295
163.503540 91.752 3.0069
164.688354 91.738 2.7845
165.881760 91.723 2.5623
167.083801 91.708 2.3396
168.294571 91.693 2.1152
169.514099 91.678 1.8905
170.742462 91.661 1.6665
171.979736 91.644 1.4436
173.225967 91.627 1.2232
174.481232 91.609 1.0045
175.745605 91.590 0.7866
177.019119 91.571 0.5705
178.301880 91.551 0.3575
179.593933 91.531 0.1455
180.895340 91.511 -0.0668
182.206177 91.491 -0.2795
183.526520 91.469 -0.4940
184.856430 91.446 -0.7065
186.195984 91.421 -0.9140
187.545227 91.394 -1.1155
188.904266 91.367 -1.3094
190.273132 91.339 -1.4956
191.651932 91.310 -1.6742
193.040726 91.280 -1.8435
194.439575 91.249 -2.0014
195.848572 91.218 -2.1496
197.267761 91.188 -2.2888
198.697250 91.158 -2.4197
200.137085 91.127 -2.5436
201.587372 91.097 -2.6597
203.048157 91.068 -2.7668
204.519531 91.039 -2.8677
206.001556 91.011 -2.9657
207.494324 90.982 -3.0588
208.997925 90.953 -3.1464
210.512405 90.923 -3.2268
212.037857 90.894 -3.2979
213.574371 90.864 -3.3599
215.122025 90.834 -3.4123
216.680893 90.804 -3.4549
218.251053 90.776 -3.4870
219.832581 90.748 -3.5090
221.425583 90.721 -3.5207
223.030121 90.694 -3.5220
224.646286 90.669 -3.5122
226.274170 90.645 -3.4931
227.913849 90.623 -3.4658
229.565399 90.603 -3.4311
231.228928 90.585 -3.3898
232.904510 90.568 -3.3422
234.592224 90.553 -3.2883
236.292191 90.541 -3.2302
238.004456 90.532 -3.1693
239.729126 90.525 -3.1072
241.466309 90.521 -3.0445
243.216080 90.520 -2.9852
244.978516 90.523 -2.9321
246.753738 90.529 -2.8881
248.541809 90.536 -2.8569
250.342850 90.546 -2.8390
252.156937 90.558 -2.8355
253.984161 90.573 -2.8489
255.824646 90.589 -2.8821
257.678467 90.606 -2.9348
259.545685 90.623 -3.0082
261.426483 90.640 -3.1017
263.320862 90.657 -3.2164
265.229004 90.673 -3.3496
267.150970 90.687 -3.5004
269.086853 90.700 -3.6655
271.036774 90.710 -3.8415
273.000824 90.718 -4.0274
274.979095 90.725 -4.2218
276.971710 90.730 -4.4224
278.978760 90.733 -4.6267
281.000336 90.734 -4.8344
283.036591 90.735 -5.0437
285.087585 90.735 -5.2563
287.153442 90.734 -5.4740
289.234283 90.731 -5.6954
291.330200 90.727 -5.9203
293.441284 90.721 -6.1474
295.567688 90.714 -6.3751
297.709503 90.706 -6.6044
299.866821 90.698 -6.8353
302.039795 90.688 -7.0683
304.228485 90.677 -7.3040
306.433044 90.665 -7.5413
308.653595 90.652 -7.7790
310.890228 90.637 -8.0183
313.143066 90.622 -8.2606
315.412231 90.606 -8.5053
317.697845 90.588 -8.7527
320.000000 90.569 -9.0023
322.318848 90.549 -9.2545
324.654510 90.526 -9.5072
327.007080 90.501 -9.7585
329.376709 90.473 -10.0072
331.763519 90.444 -10.2514
334.167603 90.414 -10.4912
336.589142 90.382 -10.7272
339.028198 90.347 -10.9573
341.484924 90.311 -11.1804
343.959473 90.273 -11.3954
346.451935 90.234 -11.6008
348.962463 90.193 -11.7965
351.491211 90.151 -11.9818
354.038239 90.108 -12.1565
356.603760 90.064 -12.3200
359.187866 90.019 -12.4726
361.790680 89.974 -12.6146
364.412354 89.928 -12.7456
367.053040 89.881 -12.8652
369.712860 89.834 -12.9737
372.391968 89.787 -13.0716
375.090454 89.740 -13.1588
377.808533 89.692 -13.2355
380.546265 89.644 -13.3008
383.303864 89.596 -13.3531
386.081451 89.549 -13.3939
388.879150 89.502 -13.4241
391.697144 89.456 -13.4440
394.535522 89.411 -13.4540
397.394501 89.366 -13.4550
400.274170 89.322 -13.4469
403.174744 89.280 -13.4331
406.096313 89.240 -13.4169
409.039062 89.201 -13.3981
412.003113 89.162 -13.3771
414.988647 89.123 -13.3541
417.995850 89.085 -13.3290
421.024811 89.048 -13.3021
424.075714 89.011 -13.2740
427.148743 88.975 -13.2441
430.244049 88.939 -13.2119
433.361786 88.902 -13.1771
436.502106 88.866 -13.1401
439.665161 88.830 -13.0991
442.851166 88.794 -13.0521
446.060242 88.758 -13.0012
449.292572 88.724 -12.9469
452.548340 88.691 -12.8922
455.827698 88.659 -12.8408
459.130798 88.627 -12.7902
462.457855 88.594 -12.7387
465.809021 88.561 -12.6872
469.184448 88.529 -12.6365
472.584381 88.497 -12.5852
476.008911 88.463 -12.5331
479.458252 88.429 -12.4762
482.932617 88.394 -12.4093
486.432159 88.359 -12.3352
489.957031 88.326 -12.2543
493.507477 88.294 -12.1693
497.083618 88.264 -12.0829
500.685699 88.234 -11.9953
504.313873 88.205 -11.9059
507.968323 88.177 -11.8193
511.649292 88.152 -11.7391
515.356934 88.128 -11.6672
519.091370 88.104 -11.6080
522.852966 88.078 -11.5572
526.641724 88.051 -11.5118
530.458008 88.022 -11.4721
534.301941 87.994 -11.4371
538.173706 87.965 -11.4081
542.073547 87.934 -11.3876
546.001648 87.900 -11.3711
549.958191 87.863 -11.3564
553.943420 87.823 -11.3391
557.957520 87.779 -11.3165
562.000671 87.731 -11.2811
566.073181 87.678 -11.2275
570.175171 87.621 -11.1463
574.306885 87.560 -11.0288
578.468567 87.496 -10.8686
582.660400 87.431 -10.6555
586.882568 87.368 -10.3930
591.135376 87.309 -10.0780
595.419006 87.255 -9.7203
599.733643 87.210 -9.3237
604.079590 87.173 -8.9035
608.456970 87.147 -8.4706
612.866089 87.132 -8.0414
617.307190 87.128 -7.6332
621.780457 87.133 -7.2552
626.286133 87.145 -6.9219
630.824463 87.161 -6.6349
635.395691 87.179 -6.4018
640.000000 87.198 -6.2185
644.637695 87.215 -6.0869
649.309021 87.228 -5.9962
654.014160 87.235 -5.9398
658.753418 87.237 -5.9071
663.527039 87.232 -5.8881
668.335205 87.222 -5.8740
673.178284 87.206 -5.8548
678.056396 87.184 -5.8241
682.969849 87.158 -5.7731
687.918945 87.129 -5.7003
692.903870 87.099 -5.6000
697.924927 87.069 -5.4765
702.982422 87.040 -5.3302
708.076477 87.013 -5.1666
713.207520 86.989 -4.9890
718.375732 86.967 -4.8037
723.581360 86.949 -4.6161
728.824707 86.934 -4.4316
734.106079 86.922 -4.2575
739.425720 86.911 -4.0936
744.783936 86.900 -3.9422
750.180908 86.889 -3.8025
755.617065 86.878 -3.6743
761.092529 86.867 -3.5574
766.607727 86.855 -3.4525
772.162903 86.841 -3.3563
777.758301 86.825 -3.2661
783.394287 86.806 -3.1803
789.071045 86.786 -3.0971
794.789001 86.765 -3.0153
800.548340 86.742 -2.9337
806.349487 86.716 -2.8503
812.192627 86.688 -2.7630
818.078125 86.657 -2.6703
824.006226 86.625 -2.5705
829.977295 86.591 -2.4624
835.991699 86.554 -2.3449
842.049622 86.516 -2.2165
848.151428 86.477 -2.0752
854.297485 86.437 -1.9216
860.488098 86.396 -1.7563
866.723572 86.353 -1.5777
873.004211 86.310 -1.3847
879.330322 86.265 -1.1768
885.702332 86.220 -0.9525
892.120483 86.174 -0.7129
898.585144 86.129 -0.4585
905.096680 86.083 -0.1890
911.655396 86.037 0.0957
918.261597 85.990 0.3959
924.915710 85.944 0.7119
931.618042 85.898 1.0438
938.368896 85.852 1.3905
945.168762 85.805 1.7546
952.017822 85.758 2.1381
958.916504 85.712 2.5414
965.865234 85.667 2.9652
972.864319 85.622 3.4103
979.914062 85.578 3.8774
987.014954 85.534 4.3671
