* Measurement data measured by REW V5.20.13
* Source: C:\Users\kurin\Desktop\Targets and Curves\Resolve\Img\Files\Arya_SPL.txt
* Format: Comma/Tab/Space delimited data
* Dated: Aug 14, 2023 2:36:48 PM
* REW Settings:
*  C-weighting compensation: Off
*  Target level: 75.0 dB
* Note: ; Measurement imported from C:\Users\kurin\Desktop\Targets and Curves\Resolve\Img\Files\Arya_SPL.txt Format: Comma/Tab/Space delimited data 623 values loaded, 5 Hz to 39,792 Hz log spaced 
* Measurement: Arya_SPL
* Smoothing: 1/48 octave
* Frequency Step: 1/96 octave
* Start Frequency: 5.000 Hz
*
* Freq(Hz) SPL(dB) Phase(degrees)
5.000000 84.825 0.7980
5.036232 84.826 0.7985
5.072727 84.826 0.7990
5.109486 84.826 0.7996
5.146511 84.826 0.8000
5.183805 84.826 0.7999
5.221369 84.827 0.8000
5.259205 84.828 0.8009
5.297316 84.828 0.8020
5.335702 84.828 0.8026
5.374367 84.829 0.8030
5.413311 84.829 0.8035
5.452538 84.830 0.8040
5.492050 84.830 0.8044
5.531847 84.831 0.8050
5.571934 84.831 0.8060
5.612310 84.832 0.8070
5.652979 84.832 0.8076
5.693943 84.833 0.8080
5.735204 84.833 0.8084
5.776763 84.834 0.8090
5.818624 84.834 0.8100
5.860788 84.835 0.8110
5.903258 84.835 0.8115
5.946035 84.836 0.8120
5.989123 84.836 0.8130
6.032523 84.837 0.8140
6.076237 84.837 0.8145
6.120268 84.838 0.8150
6.164618 84.838 0.8160
6.209289 84.839 0.8170
6.254284 84.839 0.8175
6.299605 84.840 0.8180
6.345255 84.840 0.8190
6.391235 84.841 0.8200
6.437549 84.842 0.8205
6.484198 84.842 0.8210
6.531185 84.842 0.8220
6.578513 84.843 0.8230
6.626183 84.843 0.8235
6.674199 84.844 0.8240
6.722563 84.844 0.8249
6.771278 84.845 0.8260
6.820345 84.845 0.8271
6.869768 84.846 0.8280
6.919549 84.846 0.8285
6.969691 84.847 0.8290
7.020196 84.847 0.8299
7.071068 84.848 0.8310
7.122308 84.848 0.8321
7.173919 84.849 0.8330
7.225904 84.849 0.8335
7.278266 84.850 0.8340
7.331007 84.850 0.8349
7.384131 84.851 0.8360
7.437639 84.851 0.8370
7.491535 84.852 0.8380
7.545822 84.852 0.8390
7.600502 84.853 0.8400
7.655579 84.853 0.8410
7.711054 84.854 0.8420
7.766932 84.854 0.8430
7.823214 84.855 0.8440
7.879904 84.856 0.8450
7.937005 84.856 0.8460
7.994520 84.856 0.8470
8.052452 84.857 0.8480
8.110803 84.857 0.8490
8.169578 84.858 0.8500
8.228777 84.858 0.8510
8.288406 84.859 0.8520
8.348468 84.859 0.8530
8.408964 84.860 0.8540
8.469899 84.860 0.8550
8.531276 84.861 0.8560
8.593097 84.861 0.8570
8.655366 84.862 0.8580
8.718086 84.862 0.8590
8.781260 84.863 0.8600
8.844893 84.863 0.8610
8.908987 84.864 0.8620
8.973545 84.864 0.8629
9.038571 84.865 0.8640
9.104069 84.865 0.8655
9.170040 84.866 0.8670
9.236490 84.866 0.8681
9.303422 84.867 0.8690
9.370838 84.867 0.8699
9.438744 84.868 0.8710
9.507140 84.868 0.8725
9.576033 84.869 0.8740
9.645425 84.870 0.8750
9.715320 84.870 0.8760
9.785721 84.870 0.8775
9.856632 84.871 0.8790
9.928058 84.871 0.8800
10.000000 84.872 0.8810
10.072464 84.872 0.8825
10.145453 84.873 0.8840
10.218971 84.873 0.8850
10.293022 84.874 0.8860
10.367610 84.874 0.8874
10.442738 84.875 0.8890
10.518411 84.875 0.8906
10.594631 84.876 0.8920
10.671404 84.876 0.8930
10.748734 84.877 0.8940
10.826623 84.877 0.8954
10.905077 84.878 0.8970
10.984100 84.878 0.8985
11.063695 84.879 0.9000
11.143867 84.879 0.9015
11.224621 84.880 0.9030
11.305959 84.880 0.9045
11.387886 84.881 0.9060
11.470407 84.882 0.9075
11.553527 84.882 0.9090
11.637249 84.883 0.9105
11.721577 84.883 0.9120
11.806517 84.883 0.9135
11.892071 84.884 0.9150
11.978246 84.884 0.9165
12.065045 84.885 0.9180
12.152473 84.885 0.9194
12.240536 84.886 0.9210
12.329235 84.886 0.9230
12.418578 84.887 0.9250
12.508568 84.887 0.9266
12.599211 84.888 0.9280
12.690510 84.888 0.9294
12.782471 84.889 0.9310
12.875097 84.889 0.9330
12.968395 84.890 0.9350
13.062370 84.890 0.9365
13.157025 84.891 0.9380
13.252366 84.891 0.9399
13.348398 84.892 0.9420
13.445127 84.892 0.9440
13.542556 84.893 0.9460
13.640691 84.893 0.9480
13.739536 84.894 0.9500
13.839099 84.894 0.9520
13.939383 84.895 0.9540
14.040393 84.896 0.9560
14.142136 84.896 0.9580
14.244616 84.897 0.9600
14.347837 84.897 0.9620
14.451808 84.897 0.9640
14.556532 84.898 0.9660
14.662014 84.898 0.9680
14.768262 84.899 0.9700
14.875278 84.899 0.9719
14.983070 84.900 0.9740
15.091644 84.900 0.9765
15.201005 84.901 0.9790
15.311157 84.901 0.9810
15.422109 84.902 0.9830
15.533863 84.902 0.9855
15.646428 84.903 0.9880
15.759809 84.903 0.9900
15.874010 84.904 0.9920
15.989040 84.904 0.9944
16.104904 84.905 0.9970
16.221605 84.905 0.9995
16.339155 84.906 1.0020
16.457554 84.906 1.0044
16.576813 84.907 1.0070
16.696936 84.907 1.0099
16.817928 84.908 1.0130
16.939798 84.908 1.0160
17.062551 84.909 1.0190
17.186193 84.910 1.0219
17.310732 84.910 1.0250
17.436172 84.911 1.0284
17.562521 84.911 1.0320
17.689787 84.911 1.0355
17.817974 84.912 1.0390
17.947090 84.912 1.0424
18.077143 84.913 1.0460
18.208138 84.913 1.0504
18.340080 84.914 1.0550
18.472980 84.914 1.0594
18.606844 84.915 1.0640
18.741676 84.915 1.0689
18.877487 84.916 1.0740
19.014280 84.916 1.0793
19.152065 84.917 1.0850
19.290850 84.917 1.0912
19.430639 84.918 1.0980
19.571442 84.918 1.1052
19.713264 84.919 1.1130
19.856115 84.919 1.1216
20.000000 84.920 1.1310
20.144928 84.920 1.1413
20.290907 84.921 1.1530
20.437943 84.922 1.1663
20.586044 84.922 1.1820
20.735220 84.922 1.2004
20.885475 84.922 1.2230
21.036821 84.923 1.2512
21.189262 84.924 1.2850
21.342808 84.926 1.3251
21.497467 84.930 1.3699
21.653246 84.936 1.4202
21.810154 84.944 1.4689
21.968201 84.957 1.5121
22.127390 84.973 1.5420
22.287735 84.993 1.5504
22.449242 85.014 1.5340
22.611917 85.036 1.4867
22.775772 85.058 1.4091
22.940815 85.077 1.2972
23.107054 85.093 1.1592
23.274498 85.103 0.9980
23.443153 85.106 0.8262
23.613033 85.102 0.6545
23.784142 85.092 0.4921
23.956491 85.076 0.3510
24.130091 85.056 0.2341
24.304947 85.034 0.1502
24.481071 85.011 0.0941
24.658470 84.990 0.0653
24.837156 84.970 0.0580
25.017136 84.953 0.0676
25.198421 84.937 0.0890
25.381020 84.924 0.1163
25.564941 84.912 0.1470
25.750195 84.903 0.1756
25.936790 84.894 0.2040
26.124741 84.884 0.2305
26.314051 84.873 0.2600
26.504732 84.862 0.2966
26.696796 84.851 0.3409
26.890253 84.841 0.3957
27.085112 84.831 0.4589
27.281382 84.823 0.5303
27.479073 84.816 0.6069
27.678198 84.811 0.6860
27.878765 84.808 0.7659
28.080786 84.807 0.8445
28.284271 84.807 0.9199
28.489231 84.809 0.9895
28.695675 84.811 1.0539
28.903616 84.814 1.1120
29.113064 84.816 1.1669
29.324028 84.817 1.2212
29.536524 84.819 1.2759
29.750557 84.821 1.3337
29.966141 84.824 1.3929
30.183289 84.828 1.4542
30.402010 84.833 1.5129
30.622314 84.841 1.5655
30.844217 84.851 1.6100
31.067726 84.860 1.6431
31.292856 84.870 1.6650
31.519617 84.880 1.6737
31.748020 84.890 1.6720
31.978081 84.897 1.6603
32.209808 84.902 1.6430
32.443211 84.906 1.6241
32.678310 84.908 1.6060
32.915108 84.908 1.5921
33.153625 84.907 1.5840
33.393871 84.905 1.5856
33.635857 84.903 1.5940
33.879597 84.902 1.6088
34.125103 84.902 1.6260
34.372387 84.903 1.6409
34.621464 84.905 1.6550
34.872345 84.905 1.6682
35.125042 84.905 1.6810
35.379574 84.905 1.6927
35.635948 84.905 1.7060
35.894180 84.903 1.7230
36.154285 84.900 1.7450
36.416275 84.898 1.7734
36.680161 84.896 1.8089
36.945961 84.893 1.8524
37.213688 84.891 1.9049
37.483353 84.890 1.9690
37.754974 84.890 2.0409
38.028561 84.892 2.1189
38.304131 84.897 2.1999
38.581699 84.905 2.2814
38.861279 84.915 2.3589
39.142883 84.928 2.4283
39.426529 84.944 2.4859
39.712231 84.961 2.5270
40.000000 84.980 2.5500
40.289856 85.000 2.5521
40.581814 85.020 2.5330
40.875885 85.039 2.4893
41.172089 85.055 2.4281
41.470440 85.066 2.3544
41.770950 85.075 2.2721
42.073643 85.082 2.1858
42.378525 85.086 2.0981
42.685616 85.086 2.0108
42.994934 85.082 1.9311
43.306492 85.075 1.8661
43.620308 85.065 1.8181
43.936401 85.055 1.7921
44.254780 85.044 1.7860
44.575470 85.034 1.7998
44.898483 85.026 1.8309
45.223835 85.019 1.8787
45.551544 85.015 1.9369
45.881630 85.015 2.0017
46.214108 85.019 2.0649
46.548996 85.027 2.1182
46.886307 85.037 2.1589
47.226067 85.048 2.1807
47.568283 85.059 2.1870
47.912983 85.069 2.1778
48.260181 85.078 2.1580
48.609894 85.083 2.1312
48.962143 85.087 2.1020
49.316940 85.089 2.0755
49.674313 85.090 2.0540
50.034271 85.089 2.0424
50.396843 85.088 2.0380
50.762039 85.088 2.0410
51.129883 85.090 2.0480
51.500389 85.093 2.0565
51.873581 85.096 2.0640
52.249481 85.100 2.0671
52.628101 85.105 2.0660
53.009464 85.110 2.0600
53.393593 85.114 2.0490
53.780506 85.118 2.0323
54.170223 85.122 2.0120
54.562763 85.124 1.9894
54.958145 85.125 1.9660
55.356396 85.125 1.9437
55.757530 85.124 1.9240
56.161572 85.122 1.9085
56.568542 85.118 1.9000
56.978462 85.114 1.9027
57.391350 85.109 1.9150
57.807232 85.106 1.9373
58.226128 85.103 1.9679
58.648056 85.101 2.0063
59.073048 85.100 2.0499
59.501114 85.102 2.0978
59.932281 85.106 2.1449
60.366577 85.112 2.1856
60.804020 85.119 2.2209
61.244629 85.126 2.2501
61.688435 85.133 2.2740
62.135452 85.141 2.2938
62.585712 85.150 2.3080
63.039234 85.159 2.3138
63.496040 85.167 2.3150
63.956161 85.173 2.3142
64.419617 85.179 2.3120
64.886421 85.186 2.3111
65.356621 85.194 2.3080
65.830215 85.202 2.2998
66.307251 85.210 2.2870
66.787743 85.218 2.2689
67.271713 85.225 2.2470
67.759193 85.232 2.2231
68.250206 85.238 2.1961
68.744774 85.244 2.1656
69.242928 85.250 2.1311
69.744690 85.255 2.0918
70.250084 85.260 2.0481
70.759148 85.264 1.9985
71.271896 85.266 1.9471
71.788361 85.265 1.8969
72.308571 85.263 1.8491
72.832550 85.259 1.8043
73.360321 85.254 1.7671
73.891922 85.246 1.7407
74.427376 85.236 1.7290
74.966705 85.225 1.7377
75.509949 85.214 1.7649
76.057121 85.204 1.8108
76.608261 85.196 1.8759
77.163399 85.188 1.9616
77.722557 85.183 2.0648
78.285767 85.182 2.1857
78.853058 85.186 2.3147
79.424461 85.196 2.4444
80.000000 85.211 2.5688
80.579712 85.230 2.6809
81.163628 85.252 2.7768
81.751770 85.279 2.8510
82.344177 85.308 2.9009
82.940880 85.338 2.9217
83.541901 85.369 2.9150
84.147285 85.400 2.8802
84.757050 85.430 2.8191
85.371231 85.458 2.7319
85.989868 85.483 2.6242
86.612984 85.504 2.5006
87.240616 85.523 2.3643
87.872803 85.539 2.2195
88.509560 85.553 2.0673
89.150940 85.563 1.9088
89.796967 85.570 1.7483
90.447670 85.573 1.5895
91.103088 85.573 1.4363
91.763260 85.570 1.2935
92.428215 85.564 1.1623
93.097992 85.557 1.0449
93.772614 85.549 0.9422
94.452133 85.540 0.8563
95.136566 85.530 0.7851
95.825966 85.521 0.7288
96.520363 85.514 0.6831
97.219788 85.508 0.6442
97.924286 85.504 0.6111
98.633881 85.500 0.5827
99.348625 85.498 0.5551
100.068542 85.498 0.5238
100.793686 85.499 0.4891
101.524078 85.499 0.4488
102.259766 85.498 0.4051
103.000778 85.498 0.3594
103.747162 85.498 0.3121
104.498962 85.497 0.2640
105.256203 85.495 0.2161
106.018929 85.492 0.1687
106.787186 85.489 0.1251
107.561012 85.485 0.0882
108.340446 85.480 0.0590
109.125526 85.476 0.0399
109.916290 85.473 0.0290
110.712791 85.471 0.0271
111.515060 85.472 0.0290
112.323143 85.476 0.0307
113.137085 85.483 0.0290
113.956924 85.492 0.0218
114.782700 85.503 0.0011
115.614464 85.519 -0.0399
116.452255 85.537 -0.1078
117.296112 85.556 -0.2143
118.146095 85.572 -0.3507
119.002228 85.583 -0.5151
119.864563 85.589 -0.6995
120.733154 85.591 -0.8976
121.608040 85.588 -1.1016
122.489258 85.577 -1.3054
123.376869 85.561 -1.4966
124.270905 85.538 -1.6594
125.171425 85.513 -1.7968
126.078468 85.488 -1.9044
126.992081 85.463 -1.9878
127.912323 85.438 -2.0500
128.839233 85.415 -2.0949
129.772842 85.394 -2.1250
130.713242 85.375 -2.1480
131.660431 85.360 -2.1726
132.614502 85.345 -2.1979
133.575485 85.329 -2.2273
134.543427 85.312 -2.2569
135.518387 85.294 -2.2847
136.500412 85.276 -2.3090
137.489548 85.257 -2.3288
138.485855 85.236 -2.3400
139.489380 85.214 -2.3373
140.500168 85.191 -2.3220
141.518295 85.170 -2.2926
142.543793 85.149 -2.2521
143.576721 85.130 -2.2033
144.617142 85.111 -2.1451
145.665100 85.092 -2.0766
146.720642 85.075 -2.0002
147.783844 85.061 -1.9170
148.854752 85.048 -1.8302
149.933411 85.037 -1.7445
151.019897 85.026 -1.6572
152.114243 85.015 -1.5673
153.216522 85.006 -1.4753
154.326797 84.999 -1.3804
155.445114 84.993 -1.2852
156.571533 84.988 -1.1925
157.706116 84.983 -1.1002
158.848923 84.979 -1.0071
160.000000 84.975 -0.9132
161.159424 84.972 -0.8179
162.327255 84.970 -0.7222
163.503540 84.970 -0.6273
164.688354 84.970 -0.5332
165.881760 84.971 -0.4406
167.083801 84.972 -0.3482
168.294571 84.974 -0.2551
169.514099 84.977 -0.1612
170.742462 84.981 -0.0664
171.979736 84.986 0.0287
173.225967 84.992 0.1238
174.481232 84.999 0.2178
175.745605 85.008 0.3100
177.019119 85.019 0.3988
178.301880 85.032 0.4826
179.593933 85.046 0.5598
180.895340 85.062 0.6296
182.206177 85.080 0.6879
183.526520 85.100 0.7294
184.856430 85.120 0.7570
186.195984 85.138 0.7709
187.545227 85.156 0.7730
188.904266 85.175 0.7656
190.273132 85.193 0.7481
191.651932 85.211 0.7196
193.040726 85.228 0.6831
194.439575 85.243 0.6411
195.848572 85.258 0.5931
197.267761 85.273 0.5403
198.697250 85.288 0.4802
200.137085 85.303 0.4102
201.587372 85.317 0.3322
203.048157 85.330 0.2469
204.519531 85.341 0.1553
206.001556 85.352 0.0582
207.494324 85.361 -0.0427
208.997925 85.369 -0.1463
210.512405 85.375 -0.2508
212.037857 85.380 -0.3536
213.574371 85.385 -0.4558
215.122025 85.390 -0.5567
216.680893 85.395 -0.6587
218.251053 85.400 -0.7631
219.832581 85.405 -0.8717
221.425583 85.410 -0.9864
223.030121 85.415 -1.1077
224.646286 85.420 -1.2363
226.274170 85.425 -1.3736
227.913849 85.429 -1.5217
229.565399 85.431 -1.6786
231.228928 85.432 -1.8434
232.904510 85.431 -2.0155
234.592224 85.428 -2.1939
236.292191 85.424 -2.3785
238.004456 85.418 -2.5692
239.729126 85.410 -2.7655
241.466309 85.400 -2.9674
243.216080 85.387 -3.1734
244.978516 85.372 -3.3830
246.753738 85.353 -3.5924
248.541809 85.330 -3.7978
250.342850 85.304 -3.9984
252.156937 85.276 -4.1922
253.984161 85.246 -4.3785
255.824646 85.212 -4.5579
257.678467 85.175 -4.7256
259.545685 85.134 -4.8773
261.426483 85.091 -5.0127
263.320862 85.047 -5.1290
265.229004 85.001 -5.2287
267.150970 84.954 -5.3148
269.086853 84.904 -5.3838
271.036774 84.852 -5.4334
273.000824 84.799 -5.4629
274.979095 84.745 -5.4714
276.971710 84.690 -5.4581
278.978760 84.633 -5.4233
281.000336 84.575 -5.3632
283.036591 84.516 -5.2755
285.087585 84.455 -5.1554
287.153442 84.393 -4.9974
289.234283 84.331 -4.8016
291.330200 84.272 -4.5638
293.441284 84.217 -4.2918
295.567688 84.167 -3.9909
297.709503 84.120 -3.6639
299.866821 84.078 -3.3145
302.039795 84.040 -2.9451
304.228485 84.008 -2.5580
306.433044 83.980 -2.1572
308.653595 83.958 -1.7467
310.890228 83.941 -1.3282
313.143066 83.929 -0.9036
315.412231 83.923 -0.4762
317.697845 83.922 -0.0481
320.000000 83.928 0.3758
322.318848 83.940 0.7926
324.654510 83.958 1.1938
327.007080 83.982 1.5707
329.376709 84.012 1.9200
331.763519 84.045 2.2343
334.167603 84.081 2.5162
336.589142 84.117 2.7645
339.028198 84.153 2.9834
341.484924 84.188 3.1750
343.959473 84.223 3.3446
346.451935 84.255 3.4965
348.962463 84.286 3.6356
351.491211 84.315 3.7681
354.038239 84.344 3.8936
356.603760 84.373 4.0137
359.187866 84.402 4.1297
361.790680 84.430 4.2444
364.412354 84.460 4.3547
367.053040 84.493 4.4591
369.712860 84.527 4.5547
372.391968 84.562 4.6376
375.090454 84.599 4.7088
377.808533 84.636 4.7692
380.546265 84.674 4.8149
383.303864 84.716 4.8444
386.081451 84.760 4.8520
388.879150 84.805 4.8317
391.697144 84.851 4.7822
394.535522 84.897 4.7012
397.394501 84.944 4.5854
400.274170 84.990 4.4302
403.174744 85.034 4.2367
406.096313 85.074 4.0033
409.039062 85.110 3.7339
412.003113 85.140 3.4295
414.988647 85.164 3.0971
417.995850 85.179 2.7419
421.024811 85.187 2.3712
424.075714 85.187 1.9916
427.148743 85.178 1.6102
430.244049 85.160 1.2327
433.361786 85.132 0.8691
436.502106 85.096 0.5289
439.665161 85.051 0.2199
442.851166 84.998 -0.0497
446.060242 84.938 -0.2714
449.292572 84.871 -0.4361
452.548340 84.799 -0.5368
455.827698 84.723 -0.5625
459.130798 84.647 -0.5163
462.457855 84.575 -0.3944
465.809021 84.506 -0.2067
469.184448 84.444 0.0425
472.584381 84.389 0.3410
476.008911 84.345 0.6807
479.458252 84.312 1.0448
482.932617 84.291 1.4173
486.432159 84.279 1.7878
489.957031 84.276 2.1432
493.507477 84.282 2.4770
497.083618 84.295 2.7794
500.685699 84.313 3.0482
504.313873 84.333 3.2767
507.968323 84.356 3.4684
511.649292 84.379 3.6238
515.356934 84.402 3.7457
519.091370 84.423 3.8356
522.852966 84.443 3.8978
526.641724 84.459 3.9356
530.458008 84.472 3.9540
534.301941 84.482 3.9568
538.173706 84.487 3.9510
542.073547 84.486 3.9423
546.001648 84.481 3.9390
549.958191 84.472 3.9517
553.943420 84.460 3.9799
557.957520 84.447 4.0256
562.000671 84.433 4.0907
566.073181 84.417 4.1788
570.175171 84.401 4.2876
574.306885 84.388 4.4197
578.468567 84.377 4.5645
582.660400 84.371 4.7127
586.882568 84.366 4.8635
591.135376 84.361 5.0121
595.419006 84.357 5.1605
599.733643 84.354 5.3094
604.079590 84.352 5.4585
608.456970 84.350 5.6069
612.866089 84.347 5.7575
617.307190 84.344 5.9121
621.780457 84.341 6.0735
626.286133 84.337 6.2443
630.824463 84.333 6.4264
635.395691 84.330 6.6237
640.000000 84.328 6.8323
644.637695 84.330 7.0507
649.309021 84.335 7.2752
654.014160 84.342 7.5019
658.753418 84.351 7.7302
663.527039 84.363 7.9594
668.335205 84.377 8.1862
673.178284 84.395 8.4088
678.056396 84.416 8.6223
682.969849 84.439 8.8227
687.918945 84.465 9.0064
692.903870 84.493 9.1677
697.924927 84.521 9.3095
702.982422 84.547 9.4310
708.076477 84.571 9.5376
713.207520 84.594 9.6335
718.375732 84.614 9.7227
723.581360 84.631 9.8076
728.824707 84.645 9.8967
734.106079 84.655 9.9971
739.425720 84.662 10.1155
744.783936 84.668 10.2612
750.180908 84.675 10.4333
755.617065 84.683 10.6345
761.092529 84.693 10.8631
766.607727 84.707 11.1218
772.162903 84.728 11.4000
777.758301 84.758 11.6915
783.394287 84.796 11.9860
789.071045 84.841 12.2760
794.789001 84.895 12.5471
800.548340 84.961 12.7873
806.349487 85.036 12.9814
812.192627 85.117 13.1098
818.078125 85.201 13.1739
824.006226 85.284 13.1682
829.977295 85.367 13.0944
835.991699 85.448 12.9513
842.049622 85.526 12.7419
848.151428 85.596 12.4616
854.297485 85.656 12.1313
860.488098 85.702 11.7650
866.723572 85.736 11.3784
873.004211 85.760 10.9887
879.330322 85.773 10.6053
885.702332 85.775 10.2388
892.120483 85.767 9.9031
898.585144 85.749 9.6146
905.096680 85.725 9.3778
911.655396 85.697 9.2039
918.261597 85.668 9.0883
924.915710 85.641 9.0330
931.618042 85.616 9.0289
938.368896 85.597 9.0708
945.168762 85.583 9.1496
952.017822 85.576 9.2599
958.916504 85.578 9.3855
965.865234 85.591 9.5122
972.864319 85.613 9.6296
979.914062 85.640 9.7251
987.014954 85.673 9.7918
994.167236 85.714 9.8222
1001.371399 85.760 9.8052
1008.627747 85.809 9.7259
1015.936646 85.858 9.5877
1023.298584 85.903 9.3848
1030.713867 85.942 9.1289
1038.182739 85.974 8.8253
1045.705933 85.997 8.4885
1053.283447 86.009 8.1275
1060.916016 86.010 7.7645
1068.603882 85.997 7.4220
1076.347412 85.975 7.1082
1084.147095 85.949 6.8396
1092.003296 85.919 6.6137
1099.916382 85.886 6.4353
1107.886841 85.854 6.2985
1115.915039 85.826 6.2056
1124.001343 85.803 6.1362
1132.146362 85.789 6.0770
1140.350342 85.781 6.0083
1148.613770 85.780 5.9071
1156.937134 85.782 5.7707
1165.320801 85.783 5.5872
1173.765137 85.781 5.3611
1182.270752 85.775 5.0905
