* Measurement data measured by REW V5.20.13
* Source: C:\Users\kurin\Desktop\Targets and Curves\Resolve\Img\Files\Hifiman he-r10 planar_SPL.txt
* Format: Comma/Tab/Space delimited data
* Dated: Aug 14, 2023 5:24:21 PM
* REW Settings:
*  C-weighting compensation: Off
*  Target level: 75.0 dB
* Note: ; Measurement imported from C:\Users\kurin\Desktop\Targets and Curves\Resolve\Img\Files\Hifiman he-r10 planar_SPL.txt Format: Comma/Tab/Space delimited data 623 values loaded, 5 Hz to 39,792 Hz log spaced 
* Measurement: Hifiman he-r10 planar_SPL
* Smoothing: 1/48 octave
* Frequency Step: 1/96 octave
* Start Frequency: 5.000 Hz
*
* Freq(Hz) SPL(dB) Phase(degrees)
5.000000 90.656 -12.5650
5.036232 90.652 -12.5588
5.072727 90.647 -12.5520
5.109486 90.641 -12.5441
5.146511 90.635 -12.5350
5.183805 90.627 -12.5244
5.221369 90.619 -12.5130
5.259205 90.610 -12.5013
5.297316 90.601 -12.4890
5.335702 90.591 -12.4756
5.374367 90.581 -12.4620
5.413311 90.571 -12.4490
5.452538 90.561 -12.4360
5.492050 90.551 -12.4226
5.531847 90.541 -12.4090
5.571934 90.531 -12.3956
5.612310 90.521 -12.3820
5.652979 90.512 -12.3681
5.693943 90.502 -12.3540
5.735204 90.492 -12.3400
5.776763 90.482 -12.3260
5.818624 90.472 -12.3121
5.860788 90.462 -12.2980
5.903258 90.452 -12.2836
5.946035 90.442 -12.2690
5.989123 90.432 -12.2546
6.032523 90.422 -12.2400
6.076237 90.412 -12.2251
6.120268 90.403 -12.2100
6.164618 90.393 -12.1950
6.209289 90.383 -12.1800
6.254284 90.373 -12.1651
6.299605 90.363 -12.1500
6.345255 90.353 -12.1346
6.391235 90.343 -12.1190
6.437549 90.333 -12.1031
6.484198 90.323 -12.0870
6.531185 90.313 -12.0710
6.578513 90.303 -12.0550
6.626183 90.294 -12.0391
6.674199 90.284 -12.0230
6.722563 90.274 -12.0066
6.771278 90.264 -11.9900
6.820345 90.254 -11.9731
6.869768 90.244 -11.9560
6.919549 90.234 -11.9390
6.969691 90.224 -11.9220
7.020196 90.214 -11.9051
7.071068 90.204 -11.8880
7.122308 90.195 -11.8706
7.173919 90.185 -11.8530
7.225904 90.175 -11.8351
7.278266 90.165 -11.8170
7.331007 90.155 -11.7991
7.384131 90.145 -11.7810
7.437639 90.135 -11.7626
7.491535 90.125 -11.7440
7.545822 90.115 -11.7256
7.600502 90.105 -11.7070
7.655579 90.095 -11.6881
7.711054 90.085 -11.6690
7.766932 90.076 -11.6496
7.823214 90.066 -11.6300
7.879904 90.056 -11.6106
7.937005 90.046 -11.5910
7.994520 90.036 -11.5711
8.052452 90.026 -11.5510
8.110803 90.016 -11.5311
8.169578 90.006 -11.5110
8.228777 89.996 -11.4906
8.288406 89.986 -11.4700
8.348468 89.976 -11.4491
8.408964 89.966 -11.4280
8.469899 89.957 -11.4071
8.531276 89.947 -11.3860
8.593097 89.937 -11.3646
8.655366 89.927 -11.3430
8.718086 89.917 -11.3211
8.781260 89.907 -11.2990
8.844893 89.897 -11.2766
8.908987 89.887 -11.2540
8.973545 89.877 -11.2316
9.038571 89.867 -11.2090
9.104069 89.857 -11.1861
9.170040 89.848 -11.1630
9.236490 89.838 -11.1396
9.303422 89.828 -11.1160
9.370838 89.818 -11.0921
9.438744 89.808 -11.0680
9.507140 89.798 -11.0441
9.576033 89.788 -11.0200
9.645425 89.778 -10.9951
9.715320 89.768 -10.9700
9.785721 89.758 -10.9451
9.856632 89.748 -10.9200
9.928058 89.739 -10.8946
10.000000 89.729 -10.8690
10.072464 89.719 -10.8431
10.145453 89.709 -10.8170
10.218971 89.699 -10.7906
10.293022 89.689 -10.7640
10.367610 89.679 -10.7376
10.442738 89.669 -10.7110
10.518411 89.659 -10.6837
10.594631 89.649 -10.6560
10.671404 89.640 -10.6281
10.748734 89.630 -10.6000
10.826623 89.620 -10.5721
10.905077 89.610 -10.5440
10.984100 89.600 -10.5152
11.063695 89.590 -10.4860
11.143867 89.580 -10.4566
11.224621 89.570 -10.4270
11.305959 89.560 -10.3971
11.387886 89.550 -10.3670
11.470407 89.540 -10.3366
11.553527 89.530 -10.3060
11.637249 89.521 -10.2751
11.721577 89.511 -10.2440
11.806517 89.501 -10.2127
11.892071 89.491 -10.1810
11.978246 89.481 -10.1487
12.065045 89.471 -10.1160
12.152473 89.461 -10.0831
12.240536 89.451 -10.0500
12.329235 89.441 -10.0166
12.418578 89.431 -9.9830
12.508568 89.422 -9.9492
12.599211 89.412 -9.9150
12.690510 89.402 -9.8802
12.782471 89.392 -9.8450
12.875097 89.382 -9.8097
12.968395 89.372 -9.7740
13.062370 89.362 -9.7377
13.157025 89.352 -9.7010
13.252366 89.342 -9.6642
13.348398 89.332 -9.6270
13.445127 89.322 -9.5892
13.542556 89.312 -9.5510
13.640691 89.303 -9.5127
13.739536 89.293 -9.4740
13.839099 89.283 -9.4348
13.939383 89.273 -9.3950
14.040393 89.263 -9.3547
14.142136 89.253 -9.3140
14.244616 89.243 -9.2733
14.347837 89.233 -9.2320
14.451808 89.223 -9.1898
14.556532 89.213 -9.1470
14.662014 89.204 -9.1042
14.768262 89.194 -9.0610
14.875278 89.184 -9.0173
14.983070 89.174 -8.9730
15.091644 89.164 -8.9284
15.201005 89.154 -8.8830
15.311157 89.144 -8.8368
15.422109 89.134 -8.7900
15.533863 89.124 -8.7428
15.646428 89.114 -8.6950
15.759809 89.104 -8.6468
15.874010 89.094 -8.5980
15.989040 89.085 -8.5488
16.104904 89.075 -8.4990
16.221605 89.065 -8.4484
16.339155 89.055 -8.3971
16.457554 89.045 -8.3449
16.576813 89.035 -8.2920
16.696936 89.025 -8.2384
16.817928 89.015 -8.1840
16.939798 89.005 -8.1289
17.062551 88.995 -8.0731
17.186193 88.986 -8.0164
17.310732 88.976 -7.9590
17.436172 88.966 -7.9010
17.562521 88.956 -7.8420
17.689787 88.946 -7.7816
17.817974 88.936 -7.7201
17.947090 88.926 -7.6580
18.077143 88.916 -7.5950
18.208138 88.906 -7.5311
18.340080 88.896 -7.4661
18.472980 88.886 -7.4001
18.606844 88.876 -7.3330
18.741676 88.867 -7.2646
18.877487 88.857 -7.1951
19.014280 88.847 -7.1251
19.152065 88.837 -7.0541
19.290850 88.827 -6.9820
19.430639 88.816 -6.9080
19.571442 88.805 -6.8323
19.713264 88.793 -6.7521
19.856115 88.781 -6.6654
20.000000 88.768 -6.5701
20.144928 88.755 -6.4629
20.290907 88.743 -6.3461
20.437943 88.733 -6.2201
20.586044 88.725 -6.0881
20.735220 88.720 -5.9516
20.885475 88.717 -5.8162
21.036821 88.717 -5.6868
21.189262 88.719 -5.5671
21.342808 88.723 -5.4622
21.497467 88.729 -5.3731
21.653246 88.735 -5.3033
21.810154 88.740 -5.2511
21.968201 88.743 -5.2181
22.127390 88.744 -5.1980
22.287735 88.740 -5.1874
22.449242 88.733 -5.1790
22.611917 88.722 -5.1655
22.775772 88.708 -5.1430
22.940815 88.691 -5.1064
23.107054 88.671 -5.0531
23.274498 88.649 -4.9795
23.443153 88.626 -4.8832
23.613033 88.602 -4.7605
23.784142 88.578 -4.6111
23.956491 88.555 -4.4320
24.130091 88.535 -4.2282
24.304947 88.518 -4.0035
24.481071 88.504 -3.7593
24.658470 88.493 -3.4969
24.837156 88.486 -3.2204
25.017136 88.485 -2.9318
25.198421 88.489 -2.6383
25.381020 88.499 -2.3461
25.564941 88.514 -2.0603
25.750195 88.535 -1.7870
25.936790 88.560 -1.5293
26.124741 88.589 -1.2902
26.314051 88.623 -1.0753
26.504732 88.661 -0.8905
26.696796 88.702 -0.7382
26.890253 88.743 -0.6235
27.085112 88.785 -0.5441
27.281382 88.827 -0.4995
27.479073 88.867 -0.4880
27.678198 88.904 -0.5100
27.878765 88.938 -0.5589
28.080786 88.968 -0.6310
28.284271 88.993 -0.7189
28.489231 89.013 -0.8154
28.695675 89.028 -0.9159
28.903616 89.039 -1.0141
29.113064 89.047 -1.1079
29.324028 89.052 -1.1930
29.536524 89.054 -1.2689
29.750557 89.054 -1.3331
29.966141 89.053 -1.3869
30.183289 89.051 -1.4321
30.402010 89.047 -1.4660
30.622314 89.042 -1.4869
30.844217 89.036 -1.4940
31.067726 89.029 -1.4856
31.292856 89.022 -1.4620
31.519617 89.016 -1.4231
31.748020 89.010 -1.3691
31.978081 89.005 -1.2985
32.209808 89.002 -1.2161
32.443211 89.003 -1.1248
32.678310 89.007 -1.0291
32.915108 89.013 -0.9341
33.153625 89.021 -0.8411
33.393871 89.031 -0.7531
33.635857 89.044 -0.6711
33.879597 89.059 -0.5975
34.125103 89.074 -0.5311
34.372387 89.089 -0.4722
34.621464 89.104 -0.4191
34.872345 89.121 -0.3690
35.125042 89.139 -0.3250
35.379574 89.158 -0.2887
35.635948 89.179 -0.2620
35.894180 89.201 -0.2474
36.154285 89.224 -0.2460
36.416275 89.248 -0.2594
36.680161 89.272 -0.2889
36.945961 89.296 -0.3365
37.213688 89.320 -0.4019
37.483353 89.342 -0.4874
37.754974 89.362 -0.5878
38.028561 89.378 -0.7003
38.304131 89.392 -0.8208
38.581699 89.404 -0.9444
38.861279 89.413 -1.0708
39.142883 89.420 -1.1986
39.426529 89.425 -1.3258
39.712231 89.428 -1.4497
40.000000 89.429 -1.5708
40.289856 89.429 -1.6885
40.581814 89.429 -1.8038
40.875885 89.428 -1.9183
41.172089 89.425 -2.0308
41.470440 89.421 -2.1416
41.770950 89.415 -2.2488
42.073643 89.408 -2.3503
42.378525 89.400 -2.4479
42.685616 89.392 -2.5425
42.994934 89.383 -2.6339
43.306492 89.372 -2.7226
43.620308 89.359 -2.8069
43.936401 89.346 -2.8848
44.254780 89.331 -2.9569
44.575470 89.315 -3.0244
44.898483 89.298 -3.0839
45.223835 89.278 -3.1332
45.551544 89.257 -3.1700
45.881630 89.235 -3.1907
46.214108 89.212 -3.1960
46.548996 89.189 -3.1862
46.886307 89.165 -3.1591
47.226067 89.141 -3.1127
47.568283 89.117 -3.0471
47.912983 89.095 -2.9606
48.260181 89.074 -2.8572
48.609894 89.056 -2.7406
48.962143 89.039 -2.6102
49.316940 89.024 -2.4664
49.674313 89.011 -2.3103
50.034271 89.001 -2.1420
50.396843 88.995 -1.9653
50.762039 88.992 -1.7827
51.129883 88.993 -1.5973
51.500389 88.997 -1.4116
51.873581 89.005 -1.2293
52.249481 89.017 -1.0545
52.628101 89.032 -0.8893
53.009464 89.049 -0.7366
53.393593 89.069 -0.5972
53.780506 89.091 -0.4724
54.170223 89.116 -0.3642
54.562763 89.142 -0.2746
54.958145 89.169 -0.2041
55.356396 89.197 -0.1546
55.757530 89.224 -0.1230
56.161572 89.250 -0.1073
56.568542 89.275 -0.1060
56.978462 89.300 -0.1166
57.391350 89.324 -0.1399
57.807232 89.348 -0.1769
58.226128 89.370 -0.2249
58.648056 89.391 -0.2823
59.073048 89.410 -0.3479
59.501114 89.428 -0.4202
59.932281 89.444 -0.4979
60.366577 89.459 -0.5792
60.804020 89.472 -0.6629
61.244629 89.483 -0.7464
61.688435 89.494 -0.8309
62.135452 89.505 -0.9162
62.585712 89.515 -1.0028
63.039234 89.523 -1.0927
63.496040 89.530 -1.1818
63.956161 89.535 -1.2676
64.419617 89.539 -1.3489
64.886421 89.543 -1.4229
65.356621 89.546 -1.4919
65.830215 89.550 -1.5574
66.307251 89.554 -1.6189
66.787743 89.557 -1.6755
67.271713 89.561 -1.7299
67.759193 89.567 -1.7822
68.250206 89.574 -1.8389
68.744774 89.583 -1.9076
69.242928 89.592 -1.9848
69.744690 89.598 -2.0716
70.250084 89.603 -2.1628
70.759148 89.606 -2.2541
71.271896 89.607 -2.3438
71.788361 89.607 -2.4299
72.308571 89.606 -2.5089
72.832550 89.603 -2.5756
73.360321 89.601 -2.6329
73.891922 89.601 -2.6795
74.427376 89.603 -2.7229
74.966705 89.607 -2.7694
75.509949 89.613 -2.8209
76.057121 89.619 -2.8814
76.608261 89.626 -2.9509
77.163399 89.633 -3.0308
77.722557 89.640 -3.1208
78.285767 89.645 -3.2227
78.853058 89.649 -3.3318
79.424461 89.650 -3.4445
80.000000 89.650 -3.5588
80.579712 89.648 -3.6718
81.163628 89.645 -3.7818
81.751770 89.640 -3.8862
82.344177 89.633 -3.9838
82.940880 89.626 -4.0724
83.541901 89.619 -4.1528
84.147285 89.612 -4.2251
84.757050 89.605 -4.2899
85.371231 89.598 -4.3474
85.989868 89.592 -4.3999
86.612984 89.588 -4.4488
87.240616 89.585 -4.4969
87.872803 89.583 -4.5474
88.509560 89.582 -4.6009
89.150940 89.581 -4.6590
89.796967 89.581 -4.7219
90.447670 89.581 -4.7902
91.103088 89.581 -4.8638
91.763260 89.581 -4.9432
92.428215 89.580 -5.0278
93.097992 89.578 -5.1177
93.772614 89.576 -5.2118
94.452133 89.573 -5.3102
95.136566 89.568 -5.4098
95.825966 89.562 -5.5072
96.520363 89.554 -5.6028
97.219788 89.546 -5.6959
97.924286 89.537 -5.7858
98.633881 89.527 -5.8719
99.348625 89.516 -5.9528
100.068542 89.505 -6.0268
100.793686 89.494 -6.0948
101.524078 89.483 -6.1568
102.259766 89.472 -6.2149
103.000778 89.462 -6.2721
103.747162 89.451 -6.3259
104.498962 89.440 -6.3752
105.256203 89.428 -6.4189
106.018929 89.416 -6.4547
106.787186 89.405 -6.4849
107.561012 89.396 -6.5110
108.340446 89.388 -6.5340
109.125526 89.380 -6.5552
109.916290 89.372 -6.5750
110.712791 89.366 -6.5927
111.515060 89.362 -6.6120
112.323143 89.360 -6.6359
113.137085 89.358 -6.6659
113.956924 89.357 -6.7044
114.782700 89.356 -6.7509
115.614464 89.356 -6.8058
116.452255 89.355 -6.8689
117.296112 89.353 -6.9409
118.146095 89.350 -7.0188
119.002228 89.346 -7.1010
119.864563 89.340 -7.1848
120.733154 89.333 -7.2667
121.608040 89.326 -7.3478
122.489258 89.318 -7.4279
123.376869 89.310 -7.5068
124.270905 89.301 -7.5845
125.171425 89.292 -7.6609
126.078468 89.283 -7.7353
126.992081 89.273 -7.8088
127.912323 89.263 -7.8820
128.839233 89.253 -7.9558
129.772842 89.243 -8.0325
130.713242 89.233 -8.1098
131.660431 89.221 -8.1876
132.614502 89.207 -8.2628
133.575485 89.193 -8.3317
134.543427 89.178 -8.3959
135.518387 89.163 -8.4560
136.500412 89.148 -8.5109
137.489548 89.132 -8.5593
138.485855 89.116 -8.6019
139.489380 89.101 -8.6382
140.500168 89.087 -8.6699
141.518295 89.073 -8.6991
142.543793 89.059 -8.7239
143.576721 89.045 -8.7416
144.617142 89.033 -8.7570
145.665100 89.023 -8.7734
146.720642 89.014 -8.7919
147.783844 89.005 -8.8149
148.854752 88.996 -8.8419
149.933411 88.989 -8.8727
151.019897 88.982 -8.9089
152.114243 88.975 -8.9532
153.216522 88.968 -9.0029
154.326797 88.959 -9.0561
155.445114 88.950 -9.1129
156.571533 88.941 -9.1730
157.706116 88.932 -9.2349
158.848923 88.920 -9.2978
160.000000 88.907 -9.3589
161.159424 88.894 -9.4134
162.327255 88.881 -9.4659
163.503540 88.870 -9.5189
164.688354 88.859 -9.5729
165.881760 88.847 -9.6301
167.083801 88.834 -9.6878
168.294571 88.821 -9.7430
169.514099 88.808 -9.7989
170.742462 88.796 -9.8579
171.979736 88.784 -9.9188
173.225967 88.770 -9.9818
174.481232 88.755 -10.0449
175.745605 88.741 -10.1053
177.019119 88.726 -10.1649
178.301880 88.711 -10.2248
179.593933 88.696 -10.2838
180.895340 88.680 -10.3408
182.206177 88.664 -10.3969
183.526520 88.649 -10.4523
184.856430 88.635 -10.5089
186.195984 88.620 -10.5688
187.545227 88.604 -10.6308
188.904266 88.589 -10.6938
190.273132 88.574 -10.7598
191.651932 88.559 -10.8312
193.040726 88.544 -10.9068
194.439575 88.527 -10.9860
195.848572 88.510 -11.0688
197.267761 88.493 -11.1549
198.697250 88.476 -11.2448
200.137085 88.457 -11.3384
201.587372 88.438 -11.4368
203.048157 88.418 -11.5410
204.519531 88.398 -11.6507
206.001556 88.376 -11.7657
207.494324 88.353 -11.8867
208.997925 88.329 -12.0142
210.512405 88.303 -12.1487
212.037857 88.275 -12.2927
213.574371 88.243 -12.4406
215.122025 88.207 -12.5881
216.680893 88.167 -12.7336
218.251053 88.126 -12.8755
219.832581 88.081 -13.0106
221.425583 88.031 -13.1376
223.030121 87.977 -13.2497
224.646286 87.920 -13.3392
226.274170 87.859 -13.4079
227.913849 87.797 -13.4564
229.565399 87.733 -13.4810
231.228928 87.665 -13.4781
232.904510 87.596 -13.4471
234.592224 87.528 -13.3847
236.292191 87.460 -13.2953
238.004456 87.393 -13.1823
239.729126 87.326 -13.0454
241.466309 87.260 -12.8837
243.216080 87.195 -12.7025
244.978516 87.134 -12.5062
246.753738 87.074 -12.2976
248.541809 87.015 -12.0815
250.342850 86.956 -11.8567
252.156937 86.898 -11.6238
253.984161 86.839 -11.3817
255.824646 86.780 -11.1315
257.678467 86.718 -10.8667
259.545685 86.653 -10.5837
261.426483 86.585 -10.2748
263.320862 86.514 -9.9333
265.229004 86.441 -9.5521
267.150970 86.366 -9.1250
269.086853 86.288 -8.6425
271.036774 86.209 -8.0951
273.000824 86.130 -7.4769
274.979095 86.054 -6.7802
276.971710 85.983 -6.0015
278.978760 85.918 -5.1338
281.000336 85.862 -4.1797
283.036591 85.819 -3.1340
285.087585 85.794 -2.0125
287.153442 85.792 -0.8193
289.234283 85.816 0.4156
291.330200 85.869 1.6743
293.441284 85.954 2.9157
295.567688 86.076 4.1051
297.709503 86.228 5.2052
299.866821 86.406 6.1760
302.039795 86.607 6.9908
304.228485 86.830 7.6146
306.433044 87.064 8.0331
308.653595 87.302 8.2144
310.890228 87.534 8.1774
313.143066 87.753 7.9205
315.412231 87.956 7.4735
317.697845 88.139 6.8550
320.000000 88.299 6.0964
322.318848 88.431 5.2230
324.654510 88.537 4.2721
327.007080 88.613 3.2820
329.376709 88.665 2.2761
331.763519 88.694 1.2865
334.167603 88.701 0.3260
336.589142 88.689 -0.5844
339.028198 88.660 -1.4376
341.484924 88.618 -2.2190
343.959473 88.565 -2.9301
346.451935 88.504 -3.5670
348.962463 88.436 -4.1325
351.491211 88.363 -4.6273
354.038239 88.286 -5.0549
356.603760 88.206 -5.4178
359.187866 88.125 -5.7202
361.790680 88.044 -5.9658
364.412354 87.963 -6.1585
367.053040 87.882 -6.3025
369.712860 87.802 -6.4008
372.391968 87.725 -6.4561
375.090454 87.649 -6.4730
377.808533 87.576 -6.4556
380.546265 87.505 -6.4072
383.303864 87.437 -6.3312
386.081451 87.372 -6.2313
388.879150 87.310 -6.1113
391.697144 87.251 -5.9744
394.535522 87.195 -5.8251
397.394501 87.140 -5.6645
400.274170 87.088 -5.4952
403.174744 87.037 -5.3176
406.096313 86.988 -5.1342
409.039062 86.939 -4.9416
412.003113 86.889 -4.7380
414.988647 86.839 -4.5217
417.995850 86.790 -4.2902
421.024811 86.741 -4.0438
424.075714 86.693 -3.7834
427.148743 86.645 -3.5049
430.244049 86.597 -3.2038
433.361786 86.549 -2.8821
436.502106 86.505 -2.5401
439.665161 86.462 -2.1792
442.851166 86.421 -1.8012
446.060242 86.382 -1.4053
449.292572 86.346 -0.9898
452.548340 86.312 -0.5584
455.827698 86.282 -0.1138
459.130798 86.254 0.3435
462.457855 86.229 0.8127
465.809021 86.206 1.2925
469.184448 86.187 1.7805
472.584381 86.171 2.2784
476.008911 86.156 2.7853
479.458252 86.143 3.3063
482.932617 86.131 3.8474
486.432159 86.122 4.4062
489.957031 86.119 4.9826
493.507477 86.120 5.5751
497.083618 86.124 6.1826
500.685699 86.134 6.8039
504.313873 86.150 7.4391
507.968323 86.173 8.0839
511.649292 86.202 8.7359
515.356934 86.239 9.3888
519.091370 86.284 10.0376
522.852966 86.338 10.6759
526.641724 86.399 11.2965
530.458008 86.468 11.8971
534.301941 86.543 12.4749
538.173706 86.626 13.0232
542.073547 86.717 13.5360
546.001648 86.815 14.0085
549.958191 86.918 14.4343
553.943420 87.026 14.8119
557.957520 87.138 15.1401
562.000671 87.256 15.4112
566.073181 87.378 15.6167
570.175171 87.503 15.7566
574.306885 87.625 15.8291
578.468567 87.748 15.8321
582.660400 87.872 15.7658
586.882568 87.995 15.6226
591.135376 88.113 15.3912
595.419006 88.225 15.0832
599.733643 88.325 14.7026
604.079590 88.414 14.2616
608.456970 88.491 13.7692
612.866089 88.555 13.2388
617.307190 88.602 12.6793
621.780457 88.634 12.1139
626.286133 88.648 11.5629
630.824463 88.647 11.0446
635.395691 88.632 10.5818
640.000000 88.606 10.1813
644.637695 88.573 9.8589
649.309021 88.535 9.6107
654.014160 88.496 9.4430
658.753418 88.459 9.3402
663.527039 88.427 9.2954
668.335205 88.401 9.2890
673.178284 88.383 9.3033
678.056396 88.369 9.3259
682.969849 88.359 9.3392
687.918945 88.351 9.3410
692.903870 88.342 9.3187
697.924927 88.328 9.2871
702.982422 88.305 9.2476
708.076477 88.271 9.2290
713.207520 88.225 9.2537
718.375732 88.169 9.3425
723.581360 88.106 9.5201
728.824707 88.037 9.7978
734.106079 87.966 10.1963
739.425720 87.898 10.7119
744.783936 87.840 11.3569
750.180908 87.797 12.1042
755.617065 87.777 12.9411
761.092529 87.778 13.8357
766.607727 87.803 14.7615
772.162903 87.852 15.6897
777.758301 87.927 16.5892
783.394287 88.023 17.4401
789.071045 88.135 18.2123
794.789001 88.261 18.9057
800.548340 88.395 19.5098
806.349487 88.537 20.0253
812.192627 88.686 20.4481
818.078125 88.838 20.7819
824.006226 88.990 21.0254
829.977295 89.140 21.1895
835.991699 89.288 21.2833
842.049622 89.433 21.3120
848.151428 89.575 21.2818
854.297485 89.713 21.1994
860.488098 89.846 21.0715
866.723572 89.975 20.9037
873.004211 90.100 20.7031
879.330322 90.223 20.4719
885.702332 90.340 20.2149
892.120483 90.456 19.9311
898.585144 90.570 19.6226
905.096680 90.683 19.2843
911.655396 90.792 18.9110
918.261597 90.899 18.5046
924.915710 91.001 18.0627
931.618042 91.097 17.5928
938.368896 91.185 17.0970
945.168762 91.266 16.5879
952.017822 91.338 16.0754
958.916504 91.403 15.5689
