* Measurement data measured by REW V5.20.13
* Source: C:\Users\kurin\Desktop\Targets and Curves\Resolve\Img\Files\LCDX_SPL.txt
* Format: Comma/Tab/Space delimited data
* Dated: Aug 14, 2023 5:45:32 PM
* REW Settings:
*  C-weighting compensation: Off
*  Target level: 75.0 dB
* Note: ; Measurement imported from C:\Users\kurin\Desktop\Targets and Curves\Resolve\Img\Files\LCDX_SPL.txt Format: Comma/Tab/Space delimited data 623 values loaded, 5 Hz to 39,792 Hz log spaced 
* Measurement: LCDX_SPL
* Smoothing: 1/48 octave
* Frequency Step: 1/96 octave
* Start Frequency: 5.000 Hz
*
* Freq(Hz) SPL(dB) Phase(degrees)
5.000000 79.765 0.9560
5.036232 79.765 0.9579
5.072727 79.765 0.9600
5.109486 79.765 0.9623
5.146511 79.766 0.9650
5.183805 79.766 0.9683
5.221369 79.766 0.9720
5.259205 79.766 0.9758
5.297316 79.766 0.9800
5.335702 79.766 0.9849
5.374367 79.767 0.9900
5.413311 79.767 0.9946
5.452538 79.767 0.9990
5.492050 79.767 1.0035
5.531847 79.768 1.0080
5.571934 79.768 1.0124
5.612310 79.768 1.0170
5.652979 79.768 1.0219
5.693943 79.769 1.0270
5.735204 79.769 1.0321
5.776763 79.769 1.0370
5.818624 79.769 1.0415
5.860788 79.770 1.0460
5.903258 79.770 1.0509
5.946035 79.770 1.0560
5.989123 79.771 1.0609
6.032523 79.771 1.0660
6.076237 79.771 1.0715
6.120268 79.771 1.0770
6.164618 79.771 1.0820
6.209289 79.772 1.0870
6.254284 79.772 1.0925
6.299605 79.772 1.0980
6.345255 79.772 1.1030
6.391235 79.773 1.1080
6.437549 79.773 1.1134
6.484198 79.773 1.1190
6.531185 79.773 1.1245
6.578513 79.774 1.1300
6.626183 79.774 1.1354
6.674199 79.774 1.1410
6.722563 79.774 1.1470
6.771278 79.775 1.1530
6.820345 79.775 1.1585
6.869768 79.775 1.1640
6.919549 79.775 1.1700
6.969691 79.776 1.1760
7.020196 79.776 1.1815
7.071068 79.776 1.1870
7.122308 79.776 1.1929
7.173919 79.777 1.1990
7.225904 79.777 1.2055
7.278266 79.777 1.2120
7.331007 79.777 1.2181
7.384131 79.778 1.2240
7.437639 79.778 1.2299
7.491535 79.778 1.2360
7.545822 79.778 1.2424
7.600502 79.779 1.2490
7.655579 79.779 1.2555
7.711054 79.779 1.2620
7.766932 79.779 1.2685
7.823214 79.780 1.2750
7.879904 79.780 1.2815
7.937005 79.780 1.2880
7.994520 79.780 1.2944
8.052452 79.781 1.3010
8.110803 79.781 1.3080
8.169578 79.781 1.3150
8.228777 79.781 1.3215
8.288406 79.782 1.3280
8.348468 79.782 1.3349
8.408964 79.782 1.3420
8.469899 79.782 1.3490
8.531276 79.783 1.3560
8.593097 79.783 1.3629
8.655366 79.783 1.3700
8.718086 79.783 1.3775
8.781260 79.784 1.3850
8.844893 79.784 1.3920
8.908987 79.784 1.3990
8.973545 79.785 1.4064
9.038571 79.785 1.4140
9.104069 79.785 1.4215
9.170040 79.785 1.4290
9.236490 79.785 1.4364
9.303422 79.786 1.4440
9.370838 79.786 1.4520
9.438744 79.786 1.4600
9.507140 79.786 1.4675
9.576033 79.787 1.4750
9.645425 79.787 1.4829
9.715320 79.787 1.4910
9.785721 79.787 1.4990
9.856632 79.788 1.5070
9.928058 79.788 1.5149
10.000000 79.788 1.5230
10.072464 79.788 1.5315
10.145453 79.789 1.5400
10.218971 79.789 1.5480
10.293022 79.789 1.5560
10.367610 79.789 1.5644
10.442738 79.790 1.5730
10.518411 79.790 1.5815
10.594631 79.790 1.5900
10.671404 79.790 1.5985
10.748734 79.791 1.6070
10.826623 79.791 1.6154
10.905077 79.791 1.6240
10.984100 79.791 1.6330
11.063695 79.792 1.6420
11.143867 79.792 1.6505
11.224621 79.792 1.6590
11.305959 79.792 1.6679
11.387886 79.793 1.6770
11.470407 79.793 1.6860
11.553527 79.793 1.6950
11.637249 79.793 1.7039
11.721577 79.794 1.7130
11.806517 79.794 1.7225
11.892071 79.794 1.7320
11.978246 79.794 1.7410
12.065045 79.795 1.7500
12.152473 79.795 1.7595
12.240536 79.795 1.7690
12.329235 79.795 1.7780
12.418578 79.796 1.7870
12.508568 79.796 1.7964
12.599211 79.796 1.8060
12.690510 79.796 1.8155
12.782471 79.797 1.8250
12.875097 79.797 1.8344
12.968395 79.797 1.8440
13.062370 79.797 1.8540
13.157025 79.798 1.8640
13.252366 79.798 1.8736
13.348398 79.798 1.8830
13.445127 79.799 1.8925
13.542556 79.799 1.9020
13.640691 79.799 1.9114
13.739536 79.799 1.9210
13.839099 79.799 1.9310
13.939383 79.800 1.9410
14.040393 79.800 1.9506
14.142136 79.800 1.9600
14.244616 79.800 1.9695
14.347837 79.801 1.9790
14.451808 79.801 1.9885
14.556532 79.801 1.9980
14.662014 79.801 2.0076
14.768262 79.802 2.0170
14.875278 79.802 2.0261
14.983070 79.802 2.0350
15.091644 79.802 2.0440
15.201005 79.803 2.0530
15.311157 79.803 2.0621
15.422109 79.803 2.0710
15.533863 79.803 2.0796
15.646428 79.804 2.0880
15.759809 79.804 2.0966
15.874010 79.804 2.1050
15.989040 79.804 2.1131
16.104904 79.805 2.1210
16.221605 79.805 2.1286
16.339155 79.805 2.1360
16.457554 79.805 2.1432
16.576813 79.806 2.1500
16.696936 79.806 2.1562
16.817928 79.806 2.1620
16.939798 79.806 2.1677
17.062551 79.807 2.1730
17.186193 79.807 2.1777
17.310732 79.807 2.1820
17.436172 79.807 2.1859
17.562521 79.808 2.1890
17.689787 79.808 2.1909
17.817974 79.808 2.1920
17.947090 79.808 2.1924
18.077143 79.809 2.1920
18.208138 79.809 2.1906
18.340080 79.809 2.1880
18.472980 79.809 2.1838
18.606844 79.810 2.1780
18.741676 79.810 2.1705
18.877487 79.810 2.1610
19.014280 79.810 2.1494
19.152065 79.811 2.1350
19.290850 79.811 2.1173
19.430639 79.811 2.0960
19.571442 79.811 2.0712
19.713264 79.812 2.0410
19.856115 79.812 2.0045
20.000000 79.812 1.9591
20.144928 79.813 1.9026
20.290907 79.813 1.8331
20.437943 79.811 1.7476
20.586044 79.807 1.6471
20.735220 79.801 1.5283
20.885475 79.789 1.4011
21.036821 79.769 1.2685
21.189262 79.742 1.1481
21.342808 79.707 1.0566
21.497467 79.666 1.0000
21.653246 79.623 0.9922
21.810154 79.579 1.0269
21.968201 79.537 1.1071
22.127390 79.498 1.2199
22.287735 79.465 1.3594
22.449242 79.438 1.5069
22.611917 79.419 1.6429
22.775772 79.401 1.7639
22.940815 79.381 1.8527
23.107054 79.357 1.9299
23.274498 79.324 1.9984
23.443153 79.281 2.0938
23.613033 79.223 2.2436
23.784142 79.156 2.4758
23.956491 79.083 2.8284
24.130091 79.012 3.2994
24.304947 78.950 3.9114
24.481071 78.906 4.6280
24.658470 78.888 5.4398
24.837156 78.900 6.2888
25.017136 78.949 7.1301
25.198421 79.027 7.9152
25.381020 79.133 8.5879
25.564941 79.259 9.1276
25.750195 79.397 9.4921
25.936790 79.539 9.6899
26.124741 79.676 9.7033
26.314051 79.803 9.5673
26.504732 79.910 9.2979
26.696796 80.000 8.9335
26.890253 80.070 8.5096
27.085112 80.121 8.0505
27.281382 80.154 7.5876
27.479073 80.172 7.1346
27.678198 80.177 6.7154
27.878765 80.171 6.3305
28.080786 80.159 5.9903
28.284271 80.141 5.6894
28.489231 80.119 5.4262
28.695675 80.093 5.2003
28.903616 80.063 5.0112
29.113064 80.031 4.8572
29.324028 79.998 4.7369
29.536524 79.964 4.6491
29.750557 79.928 4.5905
29.966141 79.890 4.5660
30.183289 79.850 4.5785
30.402010 79.810 4.6299
30.622314 79.771 4.7244
30.844217 79.733 4.8578
31.067726 79.699 5.0292
31.292856 79.669 5.2327
31.519617 79.643 5.4647
31.748020 79.623 5.7177
31.978081 79.609 5.9847
32.209808 79.600 6.2596
32.443211 79.597 6.5325
32.678310 79.596 6.8076
32.915108 79.596 7.0830
33.153625 79.597 7.3676
33.393871 79.600 7.6697
33.635857 79.607 7.9895
33.879597 79.618 8.3321
34.125103 79.635 8.6915
34.372387 79.661 9.0700
34.621464 79.699 9.4474
34.872345 79.751 9.8129
35.125042 79.816 10.1416
35.379574 79.894 10.4092
35.635948 79.980 10.6038
35.894180 80.071 10.7053
36.154285 80.164 10.7151
36.416275 80.254 10.6226
36.680161 80.338 10.4433
36.945961 80.411 10.1806
37.213688 80.473 9.8605
37.483353 80.518 9.5041
37.754974 80.550 9.1306
38.028561 80.571 8.7636
38.304131 80.581 8.4105
38.581699 80.582 8.0855
38.861279 80.577 7.7914
39.142883 80.566 7.5377
39.426529 80.553 7.3183
39.712231 80.540 7.1336
40.000000 80.527 6.9732
40.289856 80.516 6.8283
40.581814 80.505 6.6942
40.875885 80.494 6.5638
41.172089 80.482 6.4352
41.470440 80.470 6.3014
41.770950 80.454 6.1702
42.073643 80.432 6.0432
42.378525 80.405 5.9321
42.685616 80.373 5.8464
42.994934 80.336 5.7940
43.306492 80.295 5.7845
43.620308 80.251 5.8229
43.936401 80.205 5.9186
44.254780 80.161 6.0677
44.575470 80.122 6.2733
44.898483 80.089 6.5246
45.223835 80.063 6.8159
45.551544 80.044 7.1355
45.881630 80.035 7.4730
46.214108 80.035 7.8185
46.548996 80.044 8.1607
46.886307 80.060 8.4935
47.226067 80.083 8.8083
47.568283 80.113 9.1015
47.912983 80.147 9.3667
48.260181 80.186 9.6036
48.609894 80.228 9.8104
48.962143 80.272 9.9858
49.316940 80.318 10.1270
49.674313 80.365 10.2369
50.034271 80.410 10.3155
50.396843 80.455 10.3679
50.762039 80.498 10.3994
51.129883 80.541 10.4100
51.500389 80.582 10.3998
51.873581 80.622 10.3741
52.249481 80.658 10.3378
52.628101 80.693 10.2911
53.009464 80.728 10.2369
53.393593 80.763 10.1721
53.780506 80.796 10.0936
54.170223 80.827 10.0042
54.562763 80.857 9.9047
54.958145 80.885 9.7972
55.356396 80.911 9.6827
55.757530 80.934 9.5642
56.161572 80.955 9.4445
56.568542 80.974 9.3252
56.978462 80.991 9.2091
57.391350 81.008 9.0952
57.807232 81.024 8.9848
58.226128 81.040 8.8742
58.648056 81.056 8.7609
59.073048 81.072 8.6432
59.501114 81.087 8.5177
59.932281 81.101 8.3862
60.366577 81.113 8.2479
60.804020 81.122 8.1082
61.244629 81.127 7.9699
61.688435 81.129 7.8402
62.135452 81.128 7.7281
62.585712 81.126 7.6322
63.039234 81.125 7.5558
63.496040 81.124 7.4941
63.956161 81.125 7.4438
64.419617 81.127 7.4031
64.886421 81.130 7.3716
65.356621 81.136 7.3421
65.830215 81.146 7.3088
66.307251 81.159 7.2671
66.787743 81.172 7.2084
67.271713 81.184 7.1381
67.759193 81.195 7.0586
68.250206 81.205 6.9712
68.744774 81.215 6.8777
69.242928 81.223 6.7792
69.744690 81.229 6.6757
70.250084 81.234 6.5712
70.759148 81.237 6.4697
71.271896 81.239 6.3712
71.788361 81.240 6.2774
72.308571 81.241 6.1872
72.832550 81.241 6.1003
73.360321 81.241 6.0162
73.891922 81.241 5.9342
74.427376 81.241 5.8532
74.966705 81.240 5.7712
75.509949 81.239 5.6891
76.057121 81.237 5.6065
76.608261 81.234 5.5252
77.163399 81.229 5.4457
77.722557 81.223 5.3721
78.285767 81.215 5.3089
78.853058 81.207 5.2551
79.424461 81.199 5.2112
80.000000 81.191 5.1771
80.579712 81.183 5.1530
81.163628 81.175 5.1380
81.751770 81.168 5.1324
82.344177 81.163 5.1320
82.940880 81.160 5.1333
83.541901 81.159 5.1350
84.147285 81.158 5.1343
84.757050 81.157 5.1320
85.371231 81.157 5.1279
85.989868 81.157 5.1220
86.612984 81.157 5.1140
87.240616 81.157 5.1050
87.872803 81.157 5.0961
88.509560 81.157 5.0870
89.150940 81.157 5.0780
89.796967 81.157 5.0690
90.447670 81.157 5.0603
91.103088 81.157 5.0520
91.763260 81.157 5.0442
92.428215 81.157 5.0370
93.097992 81.157 5.0306
93.772614 81.157 5.0250
94.452133 81.157 5.0201
95.136566 81.157 5.0160
95.825966 81.157 5.0125
96.520363 81.157 5.0100
97.219788 81.157 5.0088
97.924286 81.157 5.0090
98.633881 81.157 5.0106
99.348625 81.157 5.0140
100.068542 81.157 5.0192
100.793686 81.157 5.0270
101.524078 81.157 5.0383
102.259766 81.157 5.0530
103.000778 81.158 5.0711
103.747162 81.160 5.0920
104.498962 81.162 5.1158
105.256203 81.165 5.1400
106.018929 81.171 5.1630
106.787186 81.178 5.1820
107.561012 81.186 5.1932
108.340446 81.194 5.1970
109.125526 81.202 5.1923
109.916290 81.210 5.1800
110.712791 81.218 5.1602
111.515060 81.225 5.1341
112.323143 81.231 5.1014
113.137085 81.235 5.0661
113.956924 81.237 5.0317
114.782700 81.239 4.9991
115.614464 81.240 4.9703
116.452255 81.241 4.9450
117.296112 81.241 4.9239
118.146095 81.241 4.9060
119.002228 81.241 4.8913
119.864563 81.241 4.8790
120.733154 81.241 4.8685
121.608040 81.241 4.8600
122.489258 81.241 4.8536
123.376869 81.241 4.8490
124.270905 81.241 4.8462
125.171425 81.241 4.8450
126.078468 81.241 4.8451
126.992081 81.241 4.8470
127.912323 81.241 4.8514
128.839233 81.241 4.8580
129.772842 81.241 4.8666
130.713242 81.241 4.8780
131.660431 81.241 4.8926
132.614502 81.241 4.9109
133.575485 81.242 4.9336
134.543427 81.243 4.9599
135.518387 81.244 4.9906
136.500412 81.247 5.0229
137.489548 81.252 5.0555
138.485855 81.259 5.0849
139.489380 81.267 5.1073
140.500168 81.275 5.1230
141.518295 81.283 5.1311
142.543793 81.291 5.1320
143.576721 81.299 5.1253
144.617142 81.307 5.1120
145.665100 81.313 5.0919
146.720642 81.318 5.0691
147.783844 81.321 5.0473
148.854752 81.323 5.0280
149.933411 81.324 5.0142
151.019897 81.325 5.0050
152.114243 81.325 5.0006
153.216522 81.325 5.0020
154.326797 81.325 5.0105
155.445114 81.325 5.0250
156.571533 81.326 5.0448
157.706116 81.327 5.0699
158.848923 81.328 5.1012
160.000000 81.331 5.1359
161.159424 81.336 5.1724
162.327255 81.343 5.2079
163.503540 81.351 5.2394
164.688354 81.359 5.2669
165.881760 81.368 5.2896
167.083801 81.377 5.3080
168.294571 81.387 5.3228
169.514099 81.397 5.3320
170.742462 81.408 5.3331
171.979736 81.420 5.3270
173.225967 81.431 5.3129
174.481232 81.441 5.2931
175.745605 81.450 5.2696
177.019119 81.459 5.2421
178.301880 81.467 5.2104
179.593933 81.475 5.1751
180.895340 81.481 5.1354
182.206177 81.486 5.0951
183.526520 81.489 5.0575
184.856430 81.491 5.0241
186.195984 81.492 4.9972
187.545227 81.493 4.9770
188.904266 81.493 4.9645
190.273132 81.493 4.9590
191.651932 81.494 4.9604
193.040726 81.495 4.9680
194.439575 81.497 4.9818
195.848572 81.500 4.9989
197.267761 81.505 5.0173
198.697250 81.512 5.0340
200.137085 81.520 5.0449
201.587372 81.528 5.0510
203.048157 81.536 5.0514
204.519531 81.544 5.0470
206.001556 81.552 5.0382
207.494324 81.560 5.0260
208.997925 81.566 5.0107
210.512405 81.572 4.9960
212.037857 81.576 4.9868
213.574371 81.581 4.9810
215.122025 81.588 4.9793
216.680893 81.595 4.9780
218.251053 81.603 4.9737
219.832581 81.611 4.9670
221.425583 81.619 4.9575
223.030121 81.627 4.9450
224.646286 81.636 4.9289
226.274170 81.644 4.9101
227.913849 81.652 4.8882
229.565399 81.659 4.8661
231.228928 81.665 4.8466
232.904510 81.672 4.8281
234.592224 81.680 4.8100
236.292191 81.688 4.7911
238.004456 81.696 4.7696
239.729126 81.704 4.7461
241.466309 81.712 4.7208
243.216080 81.721 4.6931
244.978516 81.730 4.6618
246.753738 81.738 4.6281
248.541809 81.746 4.5931
250.342850 81.754 4.5561
252.156937 81.762 4.5171
253.984161 81.771 4.4751
255.824646 81.780 4.4292
257.678467 81.788 4.3791
259.545685 81.796 4.3240
261.426483 81.804 4.2642
263.320862 81.811 4.1990
265.229004 81.817 4.1312
267.150970 81.822 4.0624
269.086853 81.825 3.9952
271.036774 81.827 3.9323
273.000824 81.828 3.8742
274.979095 81.828 3.8223
276.971710 81.829 3.7761
278.978760 81.831 3.7366
281.000336 81.833 3.7011
283.036591 81.836 3.6685
285.087585 81.840 3.6351
287.153442 81.846 3.5977
289.234283 81.854 3.5541
291.330200 81.862 3.5014
293.441284 81.870 3.4392
295.567688 81.878 3.3661
297.709503 81.886 3.2822
299.866821 81.893 3.1865
302.039795 81.898 3.0813
304.228485 81.901 2.9668
306.433044 81.901 2.8483
308.653595 81.898 2.7306
310.890228 81.893 2.6163
313.143066 81.886 2.5105
315.412231 81.878 2.4113
317.697845 81.869 2.3187
320.000000 81.860 2.2322
322.318848 81.850 2.1515
324.654510 81.840 2.0762
327.007080 81.829 2.0066
329.376709 81.817 1.9412
331.763519 81.806 1.8795
334.167603 81.795 1.8192
336.589142 81.783 1.7568
339.028198 81.770 1.6952
341.484924 81.755 1.6341
343.959473 81.738 1.5791
346.451935 81.718 1.5360
348.962463 81.697 1.5041
351.491211 81.677 1.4848
354.038239 81.656 1.4780
356.603760 81.634 1.4827
359.187866 81.611 1.5019
361.790680 81.589 1.5409
364.412354 81.567 1.5928
367.053040 81.548 1.6539
369.712860 81.531 1.7208
372.391968 81.515 1.7882
375.090454 81.499 1.8578
377.808533 81.484 1.9293
380.546265 81.468 2.0038
383.303864 81.452 2.0812
386.081451 81.436 2.1647
388.879150 81.418 2.2571
391.697144 81.399 2.3597
394.535522 81.381 2.4743
397.394501 81.363 2.6026
400.274170 81.344 2.7467
403.174744 81.326 2.9065
406.096313 81.310 3.0837
409.039062 81.295 3.2744
412.003113 81.283 3.4748
414.988647 81.273 3.6853
417.995850 81.264 3.9046
421.024811 81.256 4.1333
424.075714 81.251 4.3718
427.148743 81.248 4.6192
430.244049 81.246 4.8747
433.361786 81.247 5.1381
436.502106 81.251 5.4097
439.665161 81.257 5.6881
442.851166 81.266 5.9727
446.060242 81.278 6.2621
449.292572 81.294 6.5558
452.548340 81.313 6.8511
455.827698 81.336 7.1461
459.130798 81.363 7.4371
462.457855 81.394 7.7199
465.809021 81.428 7.9941
469.184448 81.465 8.2589
472.584381 81.506 8.5112
476.008911 81.550 8.7484
479.458252 81.598 8.9683
482.932617 81.647 9.1669
486.432159 81.698 9.3475
489.957031 81.749 9.5120
493.507477 81.801 9.6606
497.083618 81.855 9.7940
500.685699 81.910 9.9116
504.313873 81.965 10.0126
507.968323 82.022 10.0987
511.649292 82.079 10.1722
515.356934 82.138 10.2308
519.091370 82.198 10.2736
522.852966 82.259 10.2999
526.641724 82.319 10.3088
530.458008 82.381 10.3001
534.301941 82.443 10.2738
538.173706 82.507 10.2282
542.073547 82.570 10.1608
546.001648 82.634 10.0733
549.958191 82.696 9.9662
553.943420 82.757 9.8404
557.957520 82.817 9.6971
562.000671 82.877 9.5366
566.073181 82.935 9.3591
570.175171 82.991 9.1667
574.306885 83.045 8.9601
578.468567 83.098 8.7428
582.660400 83.148 8.5182
586.882568 83.197 8.2868
591.135376 83.246 8.0519
595.419006 83.295 7.8089
599.733643 83.345 7.5540
604.079590 83.394 7.2870
608.456970 83.442 7.0066
612.866089 83.489 6.7120
617.307190 83.536 6.4029
621.780457 83.583 6.0761
626.286133 83.629 5.7277
630.824463 83.674 5.3592
635.395691 83.715 4.9697
640.000000 83.753 4.5624
644.637695 83.788 4.1396
649.309021 83.819 3.7045
654.014160 83.845 3.2598
658.753418 83.868 2.8095
663.527039 83.886 2.3578
668.335205 83.901 1.9075
673.178284 83.912 1.4616
678.056396 83.919 1.0235
682.969849 83.923 0.5978
687.918945 83.925 0.1834
692.903870 83.926 -0.2184
697.924927 83.927 -0.6106
702.982422 83.928 -0.9945
708.076477 83.929 -1.3736
713.207520 83.931 -1.7500
718.375732 83.934 -2.1296
723.581360 83.938 -2.5176
728.824707 83.943 -2.9185
734.106079 83.948 -3.3390
739.425720 83.951 -3.7784
744.783936 83.952 -4.2392
750.180908 83.949 -4.7183
755.617065 83.943 -5.2144
761.092529 83.932 -5.7241
766.607727 83.916 -6.2456
772.162903 83.893 -6.7721
777.758301 83.864 -7.2983
783.394287 83.829 -7.8182
789.071045 83.787 -8.3248
794.789001 83.740 -8.8153
800.548340 83.688 -9.2848
806.349487 83.631 -9.7324
812.192627 83.569 -10.1576
818.078125 83.502 -10.5546
824.006226 83.430 -10.9191
829.977295 83.353 -11.2459
835.991699 83.273 -11.5289
842.049622 83.190 -11.7672
848.151428 83.106 -11.9590
854.297485 83.019 -12.1006
860.488098 82.931 -12.1873
866.723572 82.844 -12.2200
873.004211 82.760 -12.1959
879.330322 82.680 -12.1204
885.702332 82.605 -11.9960
892.120483 82.535 -11.8277
898.585144 82.473 -11.6174
905.096680 82.419 -11.3759
911.655396 82.376 -11.1113
918.261597 82.342 -10.8340
924.915710 82.319 -10.5540
931.618042 82.306 -10.2820
938.368896 82.304 -10.0281
945.168762 82.311 -9.8048
952.017822 82.327 -9.6263
958.916504 82.350 -9.4964
965.865234 82.377 -9.4230
972.864319 82.406 -9.4069
979.914062 82.436 -9.4530
987.014954 82.466 -9.5565
994.167236 82.492 -9.7176
1001.371399 82.513 -9.9262
1008.627747 82.527 -10.1748
1015.936646 82.535 -10.4548
1023.298584 82.536 -10.7570
1030.713867 82.530 -11.0750
1038.182739 82.517 -11.4017
1045.705933 82.497 -11.7296
1053.283447 82.469 -12.0507
1060.916016 82.435 -12.3587
1068.603882 82.395 -12.6446
1076.347412 82.351 -12.9080
1084.147095 82.304 -13.1460
1092.003296 82.253 -13.3563
1099.916382 82.199 -13.5353
1107.886841 82.143 -13.6844
1115.915039 82.088 -13.8016
1124.001343 82.034 -13.8937
1132.146362 81.982 -13.9660
1140.350342 81.932 -14.0218
1148.613770 81.883 -14.0657
1156.937134 81.835 -14.0999
1165.320801 81.789 -14.1284
1173.765137 81.743 -14.1499
