* Measurement data measured by REW V5.20.13
* Source: C:\Users\kurin\Desktop\Targets and Curves\Resolve\Img\Files\5909 ANC OFF_SPL.txt
* Format: Comma/Tab/Space delimited data
* Dated: Aug 14, 2023 6:50:37 PM
* REW Settings:
*  C-weighting compensation: Off
*  Target level: 75.0 dB
* Note: ; Measurement imported from C:\Users\kurin\Desktop\Targets and Curves\Resolve\Img\Files\5909 ANC OFF_SPL.txt Format: Comma/Tab/Space delimited data 623 values loaded, 5 Hz to 39,792 Hz log spaced 
* Measurement: 5909 ANC OFF_SPL
* Smoothing: 1/48 octave
* Frequency Step: 1/96 octave
* Start Frequency: 5.000 Hz
*
* Freq(Hz) SPL(dB) Phase(degrees)
5.000000 102.495 -35.4660
5.036232 102.483 -35.4616
5.072727 102.471 -35.4570
5.109486 102.457 -35.4518
5.146511 102.441 -35.4460
5.183805 102.421 -35.4391
5.221369 102.399 -35.4320
5.259205 102.377 -35.4255
5.297316 102.354 -35.4190
5.335702 102.329 -35.4119
5.374367 102.304 -35.4050
5.413311 102.279 -35.3989
5.452538 102.253 -35.3930
5.492050 102.228 -35.3866
5.531847 102.203 -35.3800
5.571934 102.178 -35.3735
5.612310 102.152 -35.3670
5.652979 102.127 -35.3605
5.693943 102.102 -35.3540
5.735204 102.076 -35.3476
5.776763 102.051 -35.3410
5.818624 102.026 -35.3340
5.860788 102.001 -35.3270
5.903258 101.976 -35.3205
5.946035 101.950 -35.3140
5.989123 101.925 -35.3070
6.032523 101.900 -35.3000
6.076237 101.875 -35.2935
6.120268 101.849 -35.2870
6.164618 101.824 -35.2801
6.209289 101.799 -35.2730
6.254284 101.774 -35.2660
6.299605 101.749 -35.2590
6.345255 101.724 -35.2521
6.391235 101.698 -35.2450
6.437549 101.673 -35.2375
6.484198 101.648 -35.2300
6.531185 101.623 -35.2230
6.578513 101.597 -35.2160
6.626183 101.572 -35.2086
6.674199 101.547 -35.2010
6.722563 101.522 -35.1935
6.771278 101.496 -35.1860
6.820345 101.471 -35.1785
6.869768 101.446 -35.1710
6.919549 101.421 -35.1636
6.969691 101.395 -35.1560
7.020196 101.370 -35.1481
7.071068 101.345 -35.1400
7.122308 101.320 -35.1320
7.173919 101.294 -35.1240
7.225904 101.269 -35.1160
7.278266 101.244 -35.1080
7.331007 101.219 -35.1000
7.384131 101.193 -35.0920
7.437639 101.168 -35.0841
7.491535 101.143 -35.0760
7.545822 101.118 -35.0675
7.600502 101.093 -35.0590
7.655579 101.068 -35.0510
7.711054 101.042 -35.0430
7.766932 101.017 -35.0346
7.823214 100.992 -35.0260
7.879904 100.967 -35.0176
7.937005 100.941 -35.0090
7.994520 100.916 -35.0001
8.052452 100.891 -34.9910
8.110803 100.866 -34.9820
8.169578 100.840 -34.9730
8.228777 100.815 -34.9640
8.288406 100.790 -34.9550
8.348468 100.765 -34.9460
8.408964 100.739 -34.9370
8.469899 100.714 -34.9281
8.531276 100.689 -34.9190
8.593097 100.664 -34.9096
8.655366 100.638 -34.9000
8.718086 100.613 -34.8905
8.781260 100.588 -34.8810
8.844893 100.563 -34.8716
8.908987 100.538 -34.8620
8.973545 100.513 -34.8520
9.038571 100.487 -34.8420
9.104069 100.462 -34.8325
9.170040 100.437 -34.8230
9.236490 100.412 -34.8131
9.303422 100.386 -34.8030
9.370838 100.361 -34.7925
9.438744 100.336 -34.7820
9.507140 100.311 -34.7720
9.576033 100.285 -34.7620
9.645425 100.260 -34.7516
9.715320 100.235 -34.7410
9.785721 100.210 -34.7300
9.856632 100.184 -34.7190
9.928058 100.159 -34.7085
10.000000 100.134 -34.6980
10.072464 100.109 -34.6871
10.145453 100.083 -34.6760
10.218971 100.058 -34.6651
10.293022 100.033 -34.6540
10.367610 100.008 -34.6425
10.442738 99.983 -34.6310
10.518411 99.958 -34.6201
10.594631 99.932 -34.6090
10.671404 99.907 -34.5971
10.748734 99.882 -34.5850
10.826623 99.857 -34.5735
10.905077 99.831 -34.5620
10.984100 99.806 -34.5501
11.063695 99.781 -34.5380
11.143867 99.756 -34.5261
11.224621 99.730 -34.5140
11.305959 99.705 -34.5016
11.387886 99.680 -34.4890
11.470407 99.655 -34.4765
11.553527 99.629 -34.4640
11.637249 99.604 -34.4516
11.721577 99.579 -34.4390
11.806517 99.554 -34.4261
11.892071 99.528 -34.4130
11.978246 99.503 -34.4000
12.065045 99.478 -34.3870
12.152473 99.452 -34.3741
12.240536 99.427 -34.3610
12.329235 99.402 -34.3476
12.418578 99.377 -34.3340
12.508568 99.352 -34.3206
12.599211 99.327 -34.3070
12.690510 99.302 -34.2931
12.782471 99.276 -34.2790
12.875097 99.251 -34.2651
12.968395 99.226 -34.2510
13.062370 99.201 -34.2366
13.157025 99.175 -34.2220
13.252366 99.150 -34.2076
13.348398 99.125 -34.1930
13.445127 99.100 -34.1781
13.542556 99.074 -34.1630
13.640691 99.049 -34.1480
13.739536 99.024 -34.1330
13.839099 98.999 -34.1181
13.939383 98.973 -34.1030
14.040393 98.948 -34.0876
14.142136 98.923 -34.0720
14.244616 98.898 -34.0561
14.347837 98.872 -34.0400
14.451808 98.847 -34.0240
14.556532 98.822 -34.0080
14.662014 98.797 -33.9921
14.768262 98.772 -33.9760
14.875278 98.747 -33.9591
14.983070 98.721 -33.9420
15.091644 98.696 -33.9255
15.201005 98.671 -33.9090
15.311157 98.646 -33.8921
15.422109 98.620 -33.8750
15.533863 98.595 -33.8576
15.646428 98.570 -33.8400
15.759809 98.545 -33.8221
15.874010 98.519 -33.8040
15.989040 98.494 -33.7861
16.104904 98.469 -33.7680
16.221605 98.444 -33.7496
16.339155 98.418 -33.7310
16.457554 98.393 -33.7121
16.576813 98.368 -33.6930
16.696936 98.343 -33.6741
16.817928 98.317 -33.6550
16.939798 98.292 -33.6352
17.062551 98.267 -33.6150
17.186193 98.242 -33.5946
17.310732 98.217 -33.5740
17.436172 98.192 -33.5531
17.562521 98.166 -33.5320
17.689787 98.141 -33.5108
17.817974 98.116 -33.4890
17.947090 98.091 -33.4663
18.077143 98.065 -33.4430
18.208138 98.040 -33.4198
18.340080 98.015 -33.3960
18.472980 97.990 -33.3715
18.606844 97.964 -33.3460
18.741676 97.939 -33.3196
18.877487 97.914 -33.2920
19.014280 97.888 -33.2628
19.152065 97.863 -33.2320
19.290850 97.838 -33.2000
19.430639 97.814 -33.1660
19.571442 97.790 -33.1289
19.713264 97.766 -33.0910
19.856115 97.744 -33.0540
20.000000 97.722 -33.0190
20.144928 97.701 -32.9877
20.290907 97.680 -32.9600
20.437943 97.660 -32.9358
20.586044 97.640 -32.9170
20.735220 97.620 -32.9063
20.885475 97.600 -32.9010
21.036821 97.578 -32.9001
21.189262 97.556 -32.9020
21.342808 97.534 -32.9042
21.497467 97.511 -32.9080
21.653246 97.487 -32.9151
21.810154 97.462 -32.9220
21.968201 97.435 -32.9259
22.127390 97.408 -32.9260
22.287735 97.381 -32.9201
22.449242 97.354 -32.9100
22.611917 97.326 -32.8975
22.775772 97.298 -32.8810
22.940815 97.270 -32.8594
23.107054 97.242 -32.8330
23.274498 97.215 -32.8014
23.443153 97.188 -32.7660
23.613033 97.163 -32.7277
23.784142 97.138 -32.6890
23.956491 97.114 -32.6539
24.130091 97.091 -32.6200
24.304947 97.067 -32.5861
24.481071 97.043 -32.5530
24.658470 97.021 -32.5214
24.837156 96.999 -32.4910
25.017136 96.976 -32.4630
25.198421 96.953 -32.4350
25.381020 96.931 -32.4045
25.564941 96.909 -32.3740
25.750195 96.888 -32.3454
25.936790 96.868 -32.3180
26.124741 96.847 -32.2907
26.314051 96.828 -32.2670
26.504732 96.811 -32.2495
26.696796 96.796 -32.2410
26.890253 96.781 -32.2456
27.085112 96.765 -32.2620
27.281382 96.749 -32.2892
27.479073 96.733 -32.3299
27.678198 96.717 -32.3879
27.878765 96.698 -32.4589
28.080786 96.676 -32.5416
28.284271 96.650 -32.6309
28.489231 96.622 -32.7225
28.695675 96.591 -32.8129
28.903616 96.555 -32.8993
29.113064 96.515 -32.9749
29.324028 96.472 -33.0327
29.536524 96.426 -33.0700
29.750557 96.378 -33.0818
29.966141 96.330 -33.0670
30.183289 96.281 -33.0213
30.402010 96.234 -32.9501
30.622314 96.191 -32.8540
30.844217 96.152 -32.7431
31.067726 96.118 -32.6253
31.292856 96.088 -32.5082
31.519617 96.063 -32.4004
31.748020 96.042 -32.3071
31.978081 96.023 -32.2366
32.209808 96.005 -32.1880
32.443211 95.986 -32.1666
32.678310 95.964 -32.1630
32.915108 95.938 -32.1728
33.153625 95.908 -32.1860
33.393871 95.873 -32.1941
33.635857 95.834 -32.1880
33.879597 95.791 -32.1562
34.125103 95.747 -32.0981
34.372387 95.703 -32.0065
34.621464 95.661 -31.8892
34.872345 95.624 -31.7488
35.125042 95.591 -31.5942
35.379574 95.563 -31.4323
35.635948 95.539 -31.2712
35.894180 95.521 -31.1197
36.154285 95.507 -30.9832
36.416275 95.496 -30.8707
36.680161 95.487 -30.7801
36.945961 95.477 -30.7137
37.213688 95.466 -30.6671
37.483353 95.454 -30.6377
37.754974 95.441 -30.6220
38.028561 95.425 -30.6161
38.304131 95.408 -30.6190
38.581699 95.390 -30.6293
38.861279 95.370 -30.6450
39.142883 95.347 -30.6648
39.426529 95.322 -30.6850
39.712231 95.294 -30.7012
40.000000 95.265 -30.7130
40.289856 95.235 -30.7196
40.581814 95.204 -30.7180
40.875885 95.170 -30.7051
41.172089 95.135 -30.6810
41.470440 95.102 -30.6434
41.770950 95.069 -30.5971
42.073643 95.038 -30.5459
42.378525 95.007 -30.4901
42.685616 94.977 -30.4308
42.994934 94.947 -30.3691
43.306492 94.918 -30.3062
43.620308 94.890 -30.2431
43.936401 94.863 -30.1814
44.254780 94.837 -30.1211
44.575470 94.811 -30.0625
44.898483 94.785 -30.0061
45.223835 94.760 -29.9517
45.551544 94.735 -29.9021
45.881630 94.712 -29.8598
46.214108 94.688 -29.8250
46.548996 94.664 -29.7999
46.886307 94.638 -29.7810
47.226067 94.611 -29.7662
47.568283 94.582 -29.7540
47.912983 94.552 -29.7430
48.260181 94.521 -29.7310
48.609894 94.487 -29.7163
48.962143 94.452 -29.6970
49.316940 94.416 -29.6704
49.674313 94.380 -29.6381
50.034271 94.343 -29.6005
50.396843 94.306 -29.5581
50.762039 94.268 -29.5112
51.129883 94.230 -29.4601
51.500389 94.191 -29.4058
51.873581 94.151 -29.3461
52.249481 94.110 -29.2803
52.628101 94.068 -29.2051
53.009464 94.024 -29.1164
53.393593 93.980 -29.0162
53.780506 93.937 -28.9049
54.170223 93.895 -28.7832
54.562763 93.852 -28.6516
54.958145 93.809 -28.5102
55.356396 93.768 -28.3581
55.757530 93.728 -28.1993
56.161572 93.690 -28.0382
56.568542 93.652 -27.8733
56.978462 93.613 -27.7052
57.391350 93.574 -27.5313
57.807232 93.536 -27.3494
58.226128 93.498 -27.1593
58.648056 93.460 -26.9607
59.073048 93.423 -26.7524
59.501114 93.385 -26.5325
59.932281 93.349 -26.3034
60.366577 93.316 -26.0658
60.804020 93.284 -25.8224
61.244629 93.253 -25.5770
61.688435 93.224 -25.3274
62.135452 93.195 -25.0726
62.585712 93.168 -24.8134
63.039234 93.142 -24.5507
63.496040 93.118 -24.2845
63.956161 93.094 -24.0158
64.419617 93.071 -23.7425
64.886421 93.049 -23.4615
65.356621 93.029 -23.1765
65.830215 93.012 -22.8897
66.307251 92.997 -22.6026
66.787743 92.983 -22.3187
67.271713 92.969 -22.0345
67.759193 92.956 -21.7474
68.250206 92.945 -21.4585
68.744774 92.936 -21.1684
69.242928 92.929 -20.8765
69.744690 92.922 -20.5822
70.250084 92.917 -20.2866
70.759148 92.915 -19.9891
71.271896 92.915 -19.6935
71.788361 92.918 -19.4036
72.308571 92.922 -19.1185
72.832550 92.928 -18.8391
73.360321 92.935 -18.5645
73.891922 92.944 -18.2944
74.427376 92.954 -18.0285
74.966705 92.967 -17.7662
75.509949 92.981 -17.5085
76.057121 92.997 -17.2555
76.608261 93.015 -17.0095
77.163399 93.036 -16.7710
77.722557 93.060 -16.5444
78.285767 93.087 -16.3341
78.853058 93.116 -16.1414
79.424461 93.146 -15.9700
80.000000 93.176 -15.8173
80.579712 93.206 -15.6828
81.163628 93.237 -15.5642
81.751770 93.267 -15.4593
82.344177 93.297 -15.3672
82.940880 93.327 -15.2865
83.541901 93.357 -15.2171
84.147285 93.387 -15.1577
84.757050 93.417 -15.1101
85.371231 93.449 -15.0759
85.989868 93.481 -15.0550
86.612984 93.512 -15.0472
87.240616 93.543 -15.0540
87.872803 93.576 -15.0764
88.509560 93.609 -15.1159
89.150940 93.641 -15.1754
89.796967 93.672 -15.2518
90.447670 93.701 -15.3427
91.103088 93.730 -15.4488
91.763260 93.758 -15.5703
92.428215 93.785 -15.7067
93.097992 93.810 -15.8586
93.772614 93.832 -16.0227
94.452133 93.852 -16.1959
95.136566 93.870 -16.3776
95.825966 93.887 -16.5656
96.520363 93.902 -16.7606
97.219788 93.917 -16.9613
97.924286 93.931 -17.1715
98.633881 93.945 -17.3951
99.348625 93.957 -17.6305
100.068542 93.966 -17.8774
100.793686 93.973 -18.1363
101.524078 93.980 -18.4080
102.259766 93.985 -18.6923
103.000778 93.986 -18.9913
103.747162 93.983 -19.2994
104.498962 93.977 -19.6119
105.256203 93.967 -19.9284
106.018929 93.955 -20.2483
106.787186 93.939 -20.5684
107.561012 93.919 -20.8861
108.340446 93.895 -21.1995
109.125526 93.869 -21.5050
109.916290 93.841 -21.8045
110.712791 93.810 -22.0985
111.515060 93.777 -22.3864
112.323143 93.741 -22.6679
113.137085 93.703 -22.9424
113.956924 93.664 -23.2091
114.782700 93.622 -23.4683
115.614464 93.578 -23.7209
116.452255 93.532 -23.9655
117.296112 93.484 -24.2012
118.146095 93.433 -24.4275
119.002228 93.380 -24.6453
119.864563 93.325 -24.8505
120.733154 93.267 -25.0396
121.608040 93.206 -25.2116
122.489258 93.145 -25.3631
123.376869 93.084 -25.4987
124.270905 93.023 -25.6228
125.171425 92.961 -25.7338
126.078468 92.897 -25.8319
126.992081 92.831 -25.9158
127.912323 92.767 -25.9830
128.839233 92.702 -26.0379
129.772842 92.638 -26.0855
130.713242 92.573 -26.1219
131.660431 92.506 -26.1460
132.614502 92.437 -26.1550
133.575485 92.369 -26.1450
134.543427 92.300 -26.1181
135.518387 92.232 -26.0743
136.500412 92.164 -26.0161
137.489548 92.097 -25.9463
138.485855 92.031 -25.8642
139.489380 91.965 -25.7697
140.500168 91.900 -25.6642
141.518295 91.837 -25.5487
142.543793 91.774 -25.4253
143.576721 91.712 -25.2980
144.617142 91.649 -25.1623
145.665100 91.585 -25.0154
146.720642 91.521 -24.8565
147.783844 91.458 -24.6830
148.854752 91.396 -24.4965
149.933411 91.334 -24.2973
151.019897 91.273 -24.0865
152.114243 91.214 -23.8654
153.216522 91.155 -23.6337
154.326797 91.097 -23.3921
155.445114 91.040 -23.1396
156.571533 90.984 -22.8753
157.706116 90.929 -22.5997
158.848923 90.876 -22.3118
160.000000 90.825 -22.0147
161.159424 90.776 -21.7114
162.327255 90.729 -21.4017
163.503540 90.684 -21.0859
164.688354 90.640 -20.7657
165.881760 90.599 -20.4410
167.083801 90.561 -20.1169
168.294571 90.526 -19.7991
169.514099 90.491 -19.4858
170.742462 90.456 -19.1782
171.979736 90.420 -18.8718
173.225967 90.385 -18.5629
174.481232 90.350 -18.2507
175.745605 90.315 -17.9343
177.019119 90.280 -17.6108
178.301880 90.245 -17.2764
179.593933 90.210 -16.9329
180.895340 90.178 -16.5800
182.206177 90.148 -16.2199
183.526520 90.120 -15.8545
184.856430 90.094 -15.4848
186.195984 90.069 -15.1109
187.545227 90.047 -14.7369
188.904266 90.029 -14.3664
190.273132 90.013 -14.0009
191.651932 89.997 -13.6439
193.040726 89.982 -13.2920
194.439575 89.968 -12.9423
195.848572 89.954 -12.5970
197.267761 89.942 -12.2580
198.697250 89.931 -11.9228
200.137085 89.918 -11.5911
201.587372 89.905 -11.2588
203.048157 89.893 -10.9208
204.519531 89.881 -10.5800
206.001556 89.872 -10.2375
207.494324 89.863 -9.8938
208.997925 89.855 -9.5500
210.512405 89.847 -9.2058
212.037857 89.841 -8.8606
213.574371 89.836 -8.5168
215.122025 89.833 -8.1770
216.680893 89.832 -7.8409
218.251053 89.831 -7.5093
219.832581 89.831 -7.1810
221.425583 89.831 -6.8552
223.030121 89.831 -6.5308
224.646286 89.831 -6.2068
226.274170 89.832 -5.8818
227.913849 89.833 -5.5539
229.565399 89.836 -5.2248
231.228928 89.841 -4.8945
232.904510 89.848 -4.5660
234.592224 89.857 -4.2419
236.292191 89.867 -3.9228
238.004456 89.878 -3.6096
239.729126 89.891 -3.3048
241.466309 89.906 -3.0123
243.216080 89.921 -2.7298
244.978516 89.935 -2.4566
246.753738 89.950 -2.1908
248.541809 89.965 -1.9299
250.342850 89.980 -1.6747
252.156937 89.995 -1.4254
253.984161 90.010 -1.1807
255.824646 90.025 -0.9386
257.678467 90.040 -0.7006
259.545685 90.057 -0.4665
261.426483 90.075 -0.2386
263.320862 90.093 -0.0194
265.229004 90.111 0.1914
267.150970 90.129 0.3933
269.086853 90.147 0.5865
271.036774 90.166 0.7708
273.000824 90.184 0.9465
274.979095 90.201 1.1129
276.971710 90.216 1.2725
278.978760 90.231 1.4269
281.000336 90.244 1.5786
283.036591 90.255 1.7308
285.087585 90.266 1.8825
287.153442 90.277 2.0343
289.234283 90.288 2.1856
291.330200 90.297 2.3355
293.441284 90.306 2.4856
295.567688 90.314 2.6372
297.709503 90.322 2.7896
299.866821 90.330 2.9423
302.039795 90.337 3.0965
304.228485 90.343 3.2524
306.433044 90.347 3.4135
308.653595 90.350 3.5833
310.890228 90.353 3.7625
313.143066 90.356 3.9541
315.412231 90.360 4.1554
317.697845 90.366 4.3663
320.000000 90.374 4.5814
322.318848 90.385 4.7958
324.654510 90.398 5.0073
327.007080 90.412 5.2120
329.376709 90.428 5.4094
331.763519 90.444 5.5981
334.167603 90.460 5.7774
336.589142 90.477 5.9457
339.028198 90.494 6.1046
341.484924 90.509 6.2535
343.959473 90.523 6.3976
346.451935 90.535 6.5415
348.962463 90.546 6.6866
351.491211 90.556 6.8363
354.038239 90.566 6.9886
356.603760 90.576 7.1425
359.187866 90.586 7.2985
361.790680 90.595 7.4561
364.412354 90.604 7.6165
367.053040 90.613 7.7812
369.712860 90.622 7.9495
372.391968 90.631 8.1215
375.090454 90.640 8.2965
377.808533 90.650 8.4739
380.546265 90.661 8.6535
383.303864 90.671 8.8337
386.081451 90.681 9.0175
388.879150 90.691 9.2077
391.697144 90.701 9.4024
394.535522 90.713 9.6011
397.394501 90.727 9.8014
400.274170 90.741 10.0001
403.174744 90.756 10.1994
406.096313 90.771 10.4012
409.039062 90.787 10.6034
412.003113 90.805 10.8045
414.988647 90.825 11.0034
417.995850 90.844 11.1984
421.024811 90.865 11.3894
424.075714 90.887 11.5759
427.148743 90.910 11.7574
430.244049 90.932 11.9324
433.361786 90.955 12.1035
436.502106 90.977 12.2733
439.665161 90.999 12.4405
442.851166 91.024 12.6042
446.060242 91.049 12.7645
449.292572 91.073 12.9216
452.548340 91.097 13.0745
455.827698 91.123 13.2238
459.130798 91.151 13.3646
462.457855 91.179 13.4905
465.809021 91.207 13.6066
469.184448 91.232 13.7152
472.584381 91.256 13.8177
476.008911 91.281 13.9168
479.458252 91.305 14.0117
482.932617 91.327 14.1003
486.432159 91.348 14.1887
489.957031 91.366 14.2838
493.507477 91.385 14.3807
497.083618 91.407 14.4783
500.685699 91.429 14.5727
504.313873 91.450 14.6595
507.968323 91.471 14.7398
511.649292 91.492 14.8141
515.356934 91.513 14.8798
519.091370 91.534 14.9333
522.852966 91.553 14.9779
526.641724 91.568 15.0143
530.458008 91.581 15.0459
534.301941 91.592 15.0764
538.173706 91.601 15.1049
542.073547 91.608 15.1316
546.001648 91.612 15.1569
549.958191 91.613 15.1803
553.943420 91.609 15.2049
557.957520 91.601 15.2308
562.000671 91.587 15.2669
566.073181 91.565 15.3156
570.175171 91.535 15.3957
574.306885 91.496 15.5194
578.468567 91.448 15.7082
582.660400 91.391 15.9833
586.882568 91.330 16.3585
591.135376 91.268 16.8548
595.419006 91.209 17.4717
599.733643 91.159 18.2239
604.079590 91.126 19.0858
608.456970 91.117 20.0522
612.866089 91.136 21.0765
617.307190 91.189 22.1249
621.780457 91.273 23.1537
626.286133 91.387 24.1177
630.824463 91.526 24.9873
635.395691 91.686 25.7207
640.000000 91.859 26.3092
644.637695 92.039 26.7247
649.309021 92.219 26.9844
654.014160 92.392 27.0868
658.753418 92.554 27.0613
663.527039 92.702 26.9284
668.335205 92.837 26.7138
673.178284 92.956 26.4450
678.056396 93.063 26.1371
682.969849 93.157 25.8121
687.918945 93.242 25.4772
692.903870 93.317 25.1462
697.924927 93.385 24.8201
702.982422 93.447 24.5052
708.076477 93.504 24.1991
713.207520 93.558 23.9018
718.375732 93.608 23.6130
723.581360 93.654 23.3325
728.824707 93.698 23.0600
734.106079 93.738 22.7946
739.425720 93.776 22.5369
744.783936 93.812 22.2867
750.180908 93.845 22.0448
755.617065 93.876 21.8129
761.092529 93.905 21.5888
766.607727 93.934 21.3711
772.162903 93.961 21.1597
777.758301 93.986 20.9537
783.394287 94.010 20.7547
789.071045 94.032 20.5648
794.789001 94.053 20.3816
800.548340 94.074 20.2022
806.349487 94.093 20.0296
812.192627 94.110 19.8654
818.078125 94.125 19.7105
824.006226 94.140 19.5672
829.977295 94.154 19.4335
835.991699 94.168 19.3065
842.049622 94.182 19.1904
848.151428 94.193 19.0891
854.297485 94.205 19.0003
860.488098 94.219 18.9244
