* Measurement data measured by REW V5.20.13
* Source: C:\Users\kurin\Desktop\Targets and Curves\Resolve\Img\Files\mm500_SPL.txt
* Format: Comma/Tab/Space delimited data
* Dated: Aug 15, 2023 12:13:31 AM
* REW Settings:
*  C-weighting compensation: Off
*  Target level: 75.0 dB
* Note: ; Measurement imported from C:\Users\kurin\Desktop\Targets and Curves\Resolve\Img\Files\mm500_SPL.txt Format: Comma/Tab/Space delimited data 623 values loaded, 5 Hz to 39,792 Hz log spaced 
* Measurement: mm500_SPL
* Smoothing: 1/48 octave
* Frequency Step: 1/96 octave
* Start Frequency: 5.000 Hz
*
* Freq(Hz) SPL(dB) Phase(degrees)
5.000000 88.472 6.0280
5.036232 88.474 6.0309
5.072727 88.476 6.0340
5.109486 88.478 6.0372
5.146511 88.480 6.0410
5.183805 88.483 6.0457
5.221369 88.486 6.0510
5.259205 88.489 6.0568
5.297316 88.493 6.0630
5.335702 88.496 6.0694
5.374367 88.500 6.0760
5.413311 88.504 6.0824
5.452538 88.507 6.0890
5.492050 88.510 6.0959
5.531847 88.514 6.1030
5.571934 88.517 6.1100
5.612310 88.521 6.1170
5.652979 88.525 6.1240
5.693943 88.529 6.1310
5.735204 88.533 6.1379
5.776763 88.536 6.1450
5.818624 88.539 6.1524
5.860788 88.543 6.1600
5.903258 88.547 6.1675
5.946035 88.550 6.1750
5.989123 88.553 6.1825
6.032523 88.557 6.1900
6.076237 88.560 6.1974
6.120268 88.564 6.2050
6.164618 88.568 6.2130
6.209289 88.572 6.2210
6.254284 88.576 6.2285
6.299605 88.579 6.2360
6.345255 88.582 6.2439
6.391235 88.586 6.2520
6.437549 88.590 6.2605
6.484198 88.593 6.2690
6.531185 88.596 6.2770
6.578513 88.600 6.2850
6.626183 88.604 6.2934
6.674199 88.608 6.3020
6.722563 88.612 6.3110
6.771278 88.615 6.3200
6.820345 88.618 6.3285
6.869768 88.622 6.3370
6.919549 88.625 6.3459
6.969691 88.629 6.3550
7.020196 88.632 6.3640
7.071068 88.636 6.3730
7.122308 88.640 6.3819
7.173919 88.644 6.3910
7.225904 88.648 6.4004
7.278266 88.651 6.4100
7.331007 88.654 6.4195
7.384131 88.658 6.4290
7.437639 88.661 6.4385
7.491535 88.665 6.4480
7.545822 88.668 6.4574
7.600502 88.672 6.4670
7.655579 88.676 6.4769
7.711054 88.680 6.4870
7.766932 88.684 6.4975
7.823214 88.687 6.5080
7.879904 88.690 6.5180
7.937005 88.694 6.5280
7.994520 88.697 6.5384
8.052452 88.701 6.5490
8.110803 88.704 6.5594
8.169578 88.708 6.5700
8.228777 88.712 6.5809
8.288406 88.716 6.5920
8.348468 88.720 6.6029
8.408964 88.723 6.6140
8.469899 88.727 6.6255
8.531276 88.730 6.6370
8.593097 88.733 6.6479
8.655366 88.737 6.6590
8.718086 88.741 6.6709
8.781260 88.744 6.6830
8.844893 88.747 6.6945
8.908987 88.751 6.7060
8.973545 88.755 6.7179
9.038571 88.759 6.7300
9.104069 88.763 6.7425
9.170040 88.766 6.7550
9.236490 88.770 6.7669
9.303422 88.773 6.7790
9.370838 88.776 6.7919
9.438744 88.780 6.8050
9.507140 88.783 6.8180
9.576033 88.787 6.8310
9.645425 88.791 6.8440
9.715320 88.795 6.8570
9.785721 88.799 6.8699
9.856632 88.802 6.8830
9.928058 88.805 6.8969
10.000000 88.809 6.9110
10.072464 88.812 6.9244
10.145453 88.816 6.9380
10.218971 88.819 6.9524
10.293022 88.823 6.9670
10.367610 88.827 6.9809
10.442738 88.831 6.9950
10.518411 88.835 7.0099
10.594631 88.838 7.0250
10.671404 88.841 7.0394
10.748734 88.845 7.0540
10.826623 88.848 7.0694
10.905077 88.852 7.0850
10.984100 88.855 7.1005
11.063695 88.859 7.1160
11.143867 88.863 7.1314
11.224621 88.867 7.1470
11.305959 88.871 7.1634
11.387886 88.874 7.1800
11.470407 88.877 7.1965
11.553527 88.881 7.2130
11.637249 88.884 7.2294
11.721577 88.888 7.2460
11.806517 88.891 7.2629
11.892071 88.895 7.2800
11.978246 88.899 7.2974
12.065045 88.903 7.3150
12.152473 88.907 7.3329
12.240536 88.910 7.3510
12.329235 88.913 7.3689
12.418578 88.917 7.3870
12.508568 88.921 7.4054
12.599211 88.924 7.4240
12.690510 88.927 7.4429
12.782471 88.931 7.4620
12.875097 88.935 7.4814
12.968395 88.939 7.5010
13.062370 88.943 7.5204
13.157025 88.946 7.5400
13.252366 88.950 7.5604
13.348398 88.953 7.5810
13.445127 88.956 7.6014
13.542556 88.960 7.6220
13.640691 88.964 7.6429
13.739536 88.967 7.6640
13.839099 88.970 7.6853
13.939383 88.974 7.7070
14.040393 88.978 7.7294
14.142136 88.982 7.7520
14.244616 88.986 7.7744
14.347837 88.989 7.7970
14.451808 88.993 7.8198
14.556532 88.996 7.8430
14.662014 88.999 7.8669
14.768262 89.003 7.8910
14.875278 89.006 7.9148
14.983070 89.010 7.9390
15.091644 89.014 7.9638
15.201005 89.018 7.9890
15.311157 89.022 8.0143
15.422109 89.025 8.0400
15.533863 89.028 8.0663
15.646428 89.032 8.0930
15.759809 89.035 8.1199
15.874010 89.039 8.1470
15.989040 89.042 8.1743
16.104904 89.046 8.2020
16.221605 89.050 8.2302
16.339155 89.054 8.2590
16.457554 89.058 8.2883
16.576813 89.061 8.3180
16.696936 89.064 8.3478
16.817928 89.068 8.3780
16.939798 89.071 8.4087
17.062551 89.075 8.4400
17.186193 89.078 8.4717
17.310732 89.082 8.5040
17.436172 89.086 8.5367
17.562521 89.090 8.5700
17.689787 89.094 8.6037
17.817974 89.097 8.6380
17.947090 89.100 8.6727
18.077143 89.104 8.7080
18.208138 89.107 8.7442
18.340080 89.111 8.7810
18.472980 89.114 8.8182
18.606844 89.118 8.8560
18.741676 89.122 8.8946
18.877487 89.126 8.9340
19.014280 89.130 8.9741
19.152065 89.133 9.0150
19.290850 89.137 9.0561
19.430639 89.140 9.0980
19.571442 89.143 9.1406
19.713264 89.146 9.1849
19.856115 89.149 9.2321
20.000000 89.152 9.2819
20.144928 89.155 9.3347
20.290907 89.158 9.3909
20.437943 89.161 9.4522
20.586044 89.165 9.5160
20.735220 89.170 9.5811
20.885475 89.177 9.6449
21.036821 89.185 9.7044
21.189262 89.193 9.7599
21.342808 89.201 9.8106
21.497467 89.208 9.8569
21.653246 89.216 9.8989
21.810154 89.223 9.9370
21.968201 89.229 9.9702
22.127390 89.233 10.0030
22.287735 89.235 10.0388
22.449242 89.237 10.0790
22.611917 89.238 10.1261
22.775772 89.239 10.1799
22.940815 89.239 10.2406
23.107054 89.239 10.3089
23.274498 89.239 10.3858
23.443153 89.239 10.4709
23.613033 89.240 10.5639
23.784142 89.241 10.6649
23.956491 89.242 10.7743
24.130091 89.245 10.8909
24.304947 89.250 11.0145
24.481071 89.256 11.1418
24.658470 89.264 11.2689
24.837156 89.273 11.3968
25.017136 89.282 11.5260
25.198421 89.292 11.6549
25.381020 89.304 11.7821
25.564941 89.317 11.9069
25.750195 89.330 12.0261
25.936790 89.342 12.1459
26.124741 89.353 12.2700
26.314051 89.363 12.4018
26.504732 89.374 12.5464
26.696796 89.386 12.7028
26.890253 89.399 12.8725
27.085112 89.415 13.0538
27.281382 89.434 13.2476
27.479073 89.457 13.4477
27.678198 89.485 13.6509
27.878765 89.518 13.8487
28.080786 89.557 14.0335
28.284271 89.600 14.1998
28.489231 89.647 14.3400
28.695675 89.696 14.4529
28.903616 89.748 14.5345
29.113064 89.800 14.5859
29.324028 89.852 14.6056
29.536524 89.902 14.5980
29.750557 89.950 14.5665
29.966141 89.997 14.5141
30.183289 90.042 14.4450
30.402010 90.085 14.3591
30.622314 90.127 14.2569
30.844217 90.166 14.1401
31.067726 90.203 14.0099
31.292856 90.237 13.8682
31.519617 90.269 13.7163
31.748020 90.297 13.5572
31.978081 90.322 13.3931
32.209808 90.343 13.2282
32.443211 90.361 13.0664
32.678310 90.377 12.9102
32.915108 90.390 12.7636
33.153625 90.401 12.6262
33.393871 90.412 12.4992
33.635857 90.422 12.3812
33.879597 90.431 12.2714
34.125103 90.439 12.1691
34.372387 90.448 12.0738
34.621464 90.457 11.9841
34.872345 90.465 11.8991
35.125042 90.474 11.8171
35.379574 90.483 11.7363
35.635948 90.493 11.6561
35.894180 90.503 11.5752
36.154285 90.512 11.4941
36.416275 90.520 11.4127
36.680161 90.528 11.3311
36.945961 90.535 11.2496
37.213688 90.542 11.1681
37.483353 90.548 11.0858
37.754974 90.553 11.0061
38.028561 90.556 10.9316
38.304131 90.557 10.8641
38.581699 90.558 10.8064
38.861279 90.559 10.7581
39.142883 90.559 10.7194
39.426529 90.560 10.6900
39.712231 90.562 10.6705
40.000000 90.564 10.6590
40.289856 90.568 10.6550
40.581814 90.573 10.6550
40.875885 90.580 10.6556
41.172089 90.589 10.6560
41.470440 90.598 10.6548
41.770950 90.609 10.6500
42.073643 90.621 10.6400
42.378525 90.634 10.6220
42.685616 90.648 10.5916
42.994934 90.661 10.5531
43.306492 90.672 10.5085
43.620308 90.681 10.4601
43.936401 90.690 10.4101
44.254780 90.698 10.3601
44.575470 90.704 10.3109
44.898483 90.709 10.2671
45.223835 90.711 10.2329
45.551544 90.713 10.2100
45.881630 90.714 10.2016
46.214108 90.716 10.2070
46.548996 90.718 10.2273
46.886307 90.723 10.2599
47.226067 90.731 10.3055
47.568283 90.742 10.3559
47.912983 90.757 10.4050
48.260181 90.776 10.4479
48.609894 90.798 10.4778
48.962143 90.822 10.4940
49.316940 90.847 10.4940
49.674313 90.873 10.4760
50.034271 90.901 10.4378
50.396843 90.929 10.3791
50.762039 90.956 10.2974
51.129883 90.981 10.1982
51.500389 91.003 10.0851
51.873581 91.023 9.9612
52.249481 91.041 9.8307
52.628101 91.056 9.6942
53.009464 91.070 9.5527
53.393593 91.081 9.4092
53.780506 91.089 9.2660
54.170223 91.095 9.1262
54.562763 91.099 8.9939
54.958145 91.101 8.8692
55.356396 91.102 8.7541
55.757530 91.102 8.6472
56.161572 91.102 8.5482
56.568542 91.102 8.4561
56.978462 91.102 8.3705
57.391350 91.102 8.2901
57.807232 91.102 8.2136
58.226128 91.102 8.1411
58.648056 91.102 8.0724
59.073048 91.102 8.0071
59.501114 91.102 7.9446
59.932281 91.102 7.8851
60.366577 91.102 7.8287
60.804020 91.102 7.7751
61.244629 91.102 7.7240
61.688435 91.102 7.6761
62.135452 91.102 7.6322
62.585712 91.102 7.5921
63.039234 91.102 7.5556
63.496040 91.103 7.5231
63.956161 91.104 7.4950
64.419617 91.106 7.4700
64.886421 91.109 7.4477
65.356621 91.114 7.4250
65.830215 91.120 7.3992
66.307251 91.126 7.3691
66.787743 91.133 7.3323
67.271713 91.141 7.2891
67.759193 91.149 7.2384
68.250206 91.156 7.1811
68.744774 91.163 7.1170
69.242928 91.169 7.0481
69.744690 91.173 6.9756
70.250084 91.176 6.9021
70.759148 91.178 6.8311
71.271896 91.179 6.7621
71.788361 91.180 6.6961
72.308571 91.180 6.6331
72.832550 91.180 6.5737
73.360321 91.180 6.5171
73.891922 91.180 6.4627
74.427376 91.180 6.4101
74.966705 91.180 6.3585
75.509949 91.180 6.3081
76.057121 91.180 6.2587
76.608261 91.180 6.2101
77.163399 91.180 6.1619
77.722557 91.180 6.1141
78.285767 91.180 6.0667
78.853058 91.180 6.0191
79.424461 91.180 5.9710
80.000000 91.180 5.9221
80.579712 91.180 5.8720
81.163628 91.180 5.8201
81.751770 91.179 5.7655
82.344177 91.178 5.7091
82.940880 91.177 5.6506
83.541901 91.174 5.5921
84.147285 91.170 5.5349
84.757050 91.164 5.4821
85.371231 91.157 5.4372
85.989868 91.149 5.4001
86.612984 91.142 5.3719
87.240616 91.134 5.3520
87.872803 91.126 5.3402
88.509560 91.119 5.3360
89.150940 91.113 5.3403
89.796967 91.109 5.3490
90.447670 91.106 5.3585
91.103088 91.104 5.3680
91.763260 91.103 5.3750
92.428215 91.102 5.3800
93.097992 91.102 5.3825
93.772614 91.102 5.3830
94.452133 91.102 5.3817
95.136566 91.102 5.3790
95.825966 91.102 5.3754
96.520363 91.102 5.3710
97.219788 91.102 5.3661
97.924286 91.102 5.3610
98.633881 91.102 5.3561
99.348625 91.102 5.3510
100.068542 91.102 5.3455
100.793686 91.102 5.3400
101.524078 91.102 5.3349
102.259766 91.102 5.3300
103.000778 91.102 5.3249
103.747162 91.102 5.3200
104.498962 91.102 5.3154
105.256203 91.102 5.3110
106.018929 91.102 5.3069
106.787186 91.102 5.3030
107.561012 91.102 5.2994
108.340446 91.102 5.2960
109.125526 91.102 5.2924
109.916290 91.102 5.2890
110.712791 91.102 5.2863
111.515060 91.102 5.2840
112.323143 91.102 5.2819
113.137085 91.102 5.2800
113.956924 91.102 5.2783
114.782700 91.102 5.2770
115.614464 91.102 5.2763
116.452255 91.102 5.2760
117.296112 91.102 5.2759
118.146095 91.102 5.2760
119.002228 91.102 5.2763
119.864563 91.102 5.2770
120.733154 91.102 5.2783
121.608040 91.102 5.2800
122.489258 91.102 5.2819
123.376869 91.102 5.2840
124.270905 91.102 5.2863
125.171425 91.102 5.2890
126.078468 91.102 5.2922
126.992081 91.102 5.2960
127.912323 91.102 5.3003
128.839233 91.102 5.3050
129.772842 91.102 5.3098
130.713242 91.102 5.3150
131.660431 91.102 5.3207
132.614502 91.102 5.3270
133.575485 91.102 5.3338
134.543427 91.102 5.3410
135.518387 91.102 5.3483
136.500412 91.102 5.3560
137.489548 91.102 5.3642
138.485855 91.102 5.3730
139.489380 91.102 5.3822
140.500168 91.102 5.3920
141.518295 91.102 5.4022
142.543793 91.102 5.4130
143.576721 91.102 5.4247
144.617142 91.102 5.4370
145.665100 91.102 5.4493
146.720642 91.102 5.4620
147.783844 91.102 5.4752
148.854752 91.102 5.4890
149.933411 91.102 5.5036
151.019897 91.102 5.5190
152.114243 91.102 5.5351
153.216522 91.102 5.5520
154.326797 91.102 5.5691
155.445114 91.102 5.5870
156.571533 91.102 5.6055
157.706116 91.102 5.6250
158.848923 91.102 5.6455
160.000000 91.102 5.6669
161.159424 91.102 5.6890
162.327255 91.102 5.7119
163.503540 91.102 5.7359
164.688354 91.102 5.7609
165.881760 91.102 5.7873
167.083801 91.102 5.8149
168.294571 91.102 5.8437
169.514099 91.102 5.8739
170.742462 91.102 5.9055
171.979736 91.102 5.9389
173.225967 91.102 5.9745
174.481232 91.102 6.0129
175.745605 91.102 6.0551
177.019119 91.102 6.1009
178.301880 91.103 6.1501
179.593933 91.104 6.2029
180.895340 91.106 6.2602
182.206177 91.109 6.3199
183.526520 91.113 6.3809
184.856430 91.119 6.4399
186.195984 91.126 6.4927
187.545227 91.134 6.5409
188.904266 91.141 6.5846
190.273132 91.149 6.6239
191.651932 91.157 6.6588
193.040726 91.165 6.6899
194.439575 91.172 6.7174
195.848572 91.179 6.7429
197.267761 91.186 6.7691
198.697250 91.193 6.7939
200.137085 91.201 6.8168
201.587372 91.209 6.8370
203.048157 91.217 6.8532
204.519531 91.224 6.8660
206.001556 91.232 6.8752
207.494324 91.239 6.8810
208.997925 91.245 6.8821
210.512405 91.250 6.8830
212.037857 91.253 6.8872
213.574371 91.255 6.8960
215.122025 91.257 6.9120
216.680893 91.259 6.9349
218.251053 91.261 6.9661
219.832581 91.264 7.0029
221.425583 91.268 7.0443
223.030121 91.274 7.0869
224.646286 91.281 7.1270
226.274170 91.289 7.1649
227.913849 91.297 7.1998
229.565399 91.306 7.2319
231.228928 91.315 7.2619
232.904510 91.325 7.2879
234.592224 91.335 7.3081
236.292191 91.345 7.3240
238.004456 91.355 7.3357
239.729126 91.364 7.3450
241.466309 91.373 7.3536
243.216080 91.382 7.3610
244.978516 91.391 7.3673
246.753738 91.400 7.3720
248.541809 91.409 7.3747
250.342850 91.419 7.3750
252.156937 91.428 7.3720
253.984161 91.437 7.3670
255.824646 91.446 7.3610
257.678467 91.454 7.3540
259.545685 91.463 7.3470
261.426483 91.471 7.3390
263.320862 91.479 7.3296
265.229004 91.487 7.3190
267.150970 91.495 7.3081
269.086853 91.504 7.2950
271.036774 91.513 7.2779
273.000824 91.521 7.2581
274.979095 91.529 7.2361
276.971710 91.537 7.2121
278.978760 91.545 7.1865
281.000336 91.552 7.1591
283.036591 91.559 7.1287
285.087585 91.566 7.0981
287.153442 91.571 7.0706
289.234283 91.576 7.0441
291.330200 91.583 7.0184
293.441284 91.590 6.9911
295.567688 91.597 6.9593
297.709503 91.605 6.9231
299.866821 91.613 6.8819
302.039795 91.620 6.8351
304.228485 91.627 6.7817
306.433044 91.633 6.7232
308.653595 91.638 6.6602
310.890228 91.641 6.5952
313.143066 91.643 6.5307
315.412231 91.645 6.4672
317.697845 91.646 6.4059
320.000000 91.646 6.3462
322.318848 91.646 6.2881
324.654510 91.646 6.2302
327.007080 91.646 6.1716
329.376709 91.646 6.1112
331.763519 91.646 6.0476
334.167603 91.645 5.9802
336.589142 91.644 5.9080
339.028198 91.642 5.8312
341.484924 91.639 5.7493
343.959473 91.635 5.6642
346.451935 91.629 5.5777
348.962463 91.621 5.4902
351.491211 91.612 5.4024
354.038239 91.602 5.3153
356.603760 91.589 5.2295
359.187866 91.574 5.1472
361.790680 91.558 5.0711
364.412354 91.540 5.0002
367.053040 91.521 4.9339
369.712860 91.500 4.8742
372.391968 91.477 4.8217
375.090454 91.451 4.7801
377.808533 91.424 4.7532
380.546265 91.395 4.7410
383.303864 91.365 4.7447
386.081451 91.335 4.7649
388.879150 91.304 4.8034
391.697144 91.273 4.8578
394.535522 91.243 4.9266
397.394501 91.213 5.0097
400.274170 91.183 5.1070
403.174744 91.153 5.2176
406.096313 91.125 5.3415
409.039062 91.097 5.4766
412.003113 91.071 5.6198
414.988647 91.045 5.7745
417.995850 91.017 5.9429
421.024811 90.990 6.1254
424.075714 90.965 6.3240
427.148743 90.942 6.5363
430.244049 90.920 6.7601
433.361786 90.898 6.9972
436.502106 90.878 7.2497
439.665161 90.859 7.5152
442.851166 90.843 7.7922
446.060242 90.830 8.0791
449.292572 90.819 8.3735
452.548340 90.810 8.6760
455.827698 90.804 8.9871
459.130798 90.800 9.3050
462.457855 90.799 9.6284
465.809021 90.801 9.9560
469.184448 90.805 10.2862
472.584381 90.812 10.6180
476.008911 90.823 10.9497
479.458252 90.836 11.2809
482.932617 90.852 11.6112
486.432159 90.870 11.9390
489.957031 90.891 12.2634
493.507477 90.916 12.5820
497.083618 90.944 12.8918
500.685699 90.974 13.1930
504.313873 91.006 13.4852
507.968323 91.041 13.7671
511.649292 91.079 14.0380
515.356934 91.119 14.2952
519.091370 91.161 14.5361
522.852966 91.206 14.7603
526.641724 91.251 14.9658
530.458008 91.298 15.1544
534.301941 91.344 15.3270
538.173706 91.391 15.4845
542.073547 91.439 15.6283
546.001648 91.488 15.7576
549.958191 91.537 15.8724
553.943420 91.587 15.9707
557.957520 91.638 16.0503
562.000671 91.689 16.1118
566.073181 91.738 16.1544
570.175171 91.787 16.1809
574.306885 91.834 16.1942
578.468567 91.881 16.1940
582.660400 91.926 16.1805
586.882568 91.971 16.1551
591.135376 92.014 16.1186
595.419006 92.056 16.0732
599.733643 92.095 16.0215
604.079590 92.134 15.9632
608.456970 92.173 15.8996
612.866089 92.211 15.8283
617.307190 92.248 15.7473
621.780457 92.284 15.6563
626.286133 92.319 15.5525
630.824463 92.353 15.4404
635.395691 92.383 15.3235
640.000000 92.411 15.2024
644.637695 92.439 15.0793
649.309021 92.466 14.9524
654.014160 92.491 14.8201
658.753418 92.514 14.6845
663.527039 92.535 14.5472
668.335205 92.555 14.4075
673.178284 92.574 14.2644
678.056396 92.591 14.1195
682.969849 92.606 13.9736
687.918945 92.618 13.8285
692.903870 92.628 13.6862
697.924927 92.637 13.5475
702.982422 92.644 13.4128
708.076477 92.649 13.2845
713.207520 92.652 13.1645
718.375732 92.653 13.0534
723.581360 92.654 12.9530
728.824707 92.655 12.8613
734.106079 92.655 12.7772
739.425720 92.655 12.7003
744.783936 92.655 12.6301
750.180908 92.655 12.5652
755.617065 92.655 12.5046
761.092529 92.655 12.4472
766.607727 92.655 12.3921
772.162903 92.655 12.3382
777.758301 92.655 12.2847
783.394287 92.655 12.2302
789.071045 92.655 12.1731
794.789001 92.654 12.1132
800.548340 92.652 12.0491
806.349487 92.648 11.9822
812.192627 92.641 11.9115
818.078125 92.632 11.8432
824.006226 92.619 11.7816
829.977295 92.603 11.7321
835.991699 92.583 11.7003
842.049622 92.560 11.6900
848.151428 92.535 11.7068
854.297485 92.509 11.7518
860.488098 92.482 11.8288
866.723572 92.456 11.9356
873.004211 92.432 12.0732
879.330322 92.411 12.2354
885.702332 92.393 12.4175
892.120483 92.379 12.6153
898.585144 92.368 12.8232
905.096680 92.359 13.0402
911.655396 92.353 13.2630
918.261597 92.349 13.4921
924.915710 92.348 13.7266
931.618042 92.348 13.9671
938.368896 92.349 14.2141
945.168762 92.353 14.4680
952.017822 92.359 14.7309
958.916504 92.368 14.9990
965.865234 92.380 15.2694
972.864319 92.395 15.5410
979.914062 92.412 15.8114
987.014954 92.431 16.0810
994.167236 92.453 16.3502
1001.371399 92.478 16.6161
1008.627747 92.506 16.8754
1015.936646 92.535 17.1299
1023.298584 92.565 17.3800
1030.713867 92.596 17.6272
1038.182739 92.629 17.8738
1045.705933 92.665 18.1190
1053.283447 92.703 18.3634
1060.916016 92.743 18.6050
1068.603882 92.786 18.8424
1076.347412 92.833 19.0731
1084.147095 92.883 19.2950
1092.003296 92.936 19.5053
1099.916382 92.991 19.7019
1107.886841 93.050 19.8813
1115.915039 93.112 20.0400
1124.001343 93.176 20.1755
1132.146362 93.242 20.2848
1140.350342 93.309 20.3667
1148.613770 93.377 20.4192
