* Measurement data measured by REW V5.20.13
* Source: C:\Users\kurin\Desktop\Targets and Curves\Resolve\Img\Files\HiFiMAN_HE1000_V2_SPL.txt
* Format: Comma/Tab/Space delimited data
* Dated: Aug 14, 2023 5:26:29 PM
* REW Settings:
*  C-weighting compensation: Off
*  Target level: 75.0 dB
* Note: ; Measurement imported from C:\Users\kurin\Desktop\Targets and Curves\Resolve\Img\Files\HiFiMAN_HE1000_V2_SPL.txt Format: Comma/Tab/Space delimited data 623 values loaded, 5 Hz to 39,792 Hz log spaced 
* Measurement: HiFiMAN_HE1000_V2_SPL
* Smoothing: 1/48 octave
* Frequency Step: 1/96 octave
* Start Frequency: 5.000 Hz
*
* Freq(Hz) SPL(dB) Phase(degrees)
5.000000 90.841 12.7510
5.036232 90.845 12.7476
5.072727 90.850 12.7440
5.109486 90.855 12.7397
5.146511 90.861 12.7350
5.183805 90.869 12.7297
5.221369 90.877 12.7240
5.259205 90.885 12.7181
5.297316 90.894 12.7120
5.335702 90.903 12.7056
5.374367 90.913 12.6990
5.413311 90.923 12.6924
5.452538 90.932 12.6860
5.492050 90.941 12.6800
5.531847 90.950 12.6740
5.571934 90.959 12.6676
5.612310 90.969 12.6610
5.652979 90.979 12.6546
5.693943 90.988 12.6480
5.735204 90.997 12.6410
5.776763 91.007 12.6340
5.818624 91.017 12.6275
5.860788 91.026 12.6210
5.903258 91.035 12.6140
5.946035 91.045 12.6070
5.989123 91.055 12.6005
6.032523 91.064 12.5940
6.076237 91.073 12.5871
6.120268 91.082 12.5800
6.164618 91.091 12.5725
6.209289 91.101 12.5650
6.254284 91.110 12.5579
6.299605 91.120 12.5510
6.345255 91.130 12.5441
6.391235 91.139 12.5370
6.437549 91.148 12.5296
6.484198 91.158 12.5220
6.531185 91.167 12.5145
6.578513 91.177 12.5070
6.626183 91.187 12.4996
6.674199 91.196 12.4920
6.722563 91.206 12.4840
6.771278 91.215 12.4760
6.820345 91.224 12.4685
6.869768 91.233 12.4610
6.919549 91.242 12.4531
6.969691 91.252 12.4450
7.020196 91.261 12.4371
7.071068 91.271 12.4290
7.122308 91.281 12.4205
7.173919 91.290 12.4120
7.225904 91.299 12.4040
7.278266 91.309 12.3960
7.331007 91.318 12.3876
7.384131 91.328 12.3790
7.437639 91.338 12.3705
7.491535 91.347 12.3620
7.545822 91.356 12.3536
7.600502 91.365 12.3450
7.655579 91.374 12.3360
7.711054 91.384 12.3270
7.766932 91.394 12.3186
7.823214 91.403 12.3100
7.879904 91.412 12.3006
7.937005 91.422 12.2910
7.994520 91.431 12.2819
8.052452 91.441 12.2730
8.110803 91.451 12.2641
8.169578 91.460 12.2550
8.228777 91.469 12.2456
8.288406 91.479 12.2360
8.348468 91.489 12.2266
8.408964 91.498 12.2170
8.469899 91.507 12.2070
8.531276 91.516 12.1970
8.593097 91.525 12.1875
8.655366 91.535 12.1780
8.718086 91.545 12.1681
8.781260 91.554 12.1580
8.844893 91.563 12.1475
8.908987 91.573 12.1370
8.973545 91.582 12.1270
9.038571 91.592 12.1170
9.104069 91.602 12.1066
9.170040 91.611 12.0960
9.236490 91.621 12.0856
9.303422 91.630 12.0750
9.370838 91.639 12.0641
9.438744 91.648 12.0530
9.507140 91.657 12.0420
9.576033 91.667 12.0310
9.645425 91.676 12.0200
9.715320 91.686 12.0090
9.785721 91.695 11.9981
9.856632 91.705 11.9870
9.928058 91.715 11.9756
10.000000 91.724 11.9640
10.072464 91.733 11.9526
10.145453 91.743 11.9410
10.218971 91.752 11.9291
10.293022 91.762 11.9170
10.367610 91.772 11.9050
10.442738 91.781 11.8930
10.518411 91.790 11.8811
10.594631 91.799 11.8690
10.671404 91.808 11.8566
10.748734 91.818 11.8440
10.826623 91.827 11.8315
10.905077 91.837 11.8190
10.984100 91.846 11.8066
11.063695 91.856 11.7940
11.143867 91.866 11.7811
11.224621 91.875 11.7680
11.305959 91.884 11.7550
11.387886 91.894 11.7420
11.470407 91.904 11.7291
11.553527 91.913 11.7160
11.637249 91.922 11.7026
11.721577 91.931 11.6890
11.806517 91.940 11.6751
11.892071 91.950 11.6610
11.978246 91.959 11.6470
12.065045 91.969 11.6330
12.152473 91.979 11.6190
12.240536 91.988 11.6050
12.329235 91.997 11.5911
12.418578 92.007 11.5770
12.508568 92.016 11.5621
12.599211 92.026 11.5470
12.690510 92.035 11.5325
12.782471 92.045 11.5180
12.875097 92.055 11.5031
12.968395 92.064 11.4880
13.062370 92.073 11.4725
13.157025 92.082 11.4570
13.252366 92.091 11.4421
13.348398 92.101 11.4270
13.445127 92.110 11.4111
13.542556 92.120 11.3950
13.640691 92.129 11.3790
13.739536 92.139 11.3630
13.839099 92.148 11.3471
13.939383 92.158 11.3310
14.040393 92.167 11.3146
14.142136 92.177 11.2980
14.244616 92.187 11.2816
14.347837 92.196 11.2650
14.451808 92.205 11.2481
14.556532 92.214 11.2310
14.662014 92.223 11.2141
14.768262 92.233 11.1970
14.875278 92.242 11.1796
14.983070 92.252 11.1620
15.091644 92.261 11.1441
15.201005 92.271 11.1260
15.311157 92.280 11.1080
15.422109 92.290 11.0900
15.533863 92.299 11.0721
15.646428 92.309 11.0540
15.759809 92.318 11.0356
15.874010 92.328 11.0170
15.989040 92.338 10.9981
16.104904 92.347 10.9790
16.221605 92.356 10.9600
16.339155 92.365 10.9410
16.457554 92.374 10.9221
16.576813 92.384 10.9030
16.696936 92.393 10.8836
16.817928 92.403 10.8640
16.939798 92.412 10.8445
17.062551 92.422 10.8250
17.186193 92.431 10.8055
17.310732 92.441 10.7860
17.436172 92.450 10.7665
17.562521 92.460 10.7470
17.689787 92.470 10.7275
17.817974 92.479 10.7080
17.947090 92.488 10.6885
18.077143 92.497 10.6690
18.208138 92.506 10.6494
18.340080 92.516 10.6300
18.472980 92.525 10.6112
18.606844 92.535 10.5930
18.741676 92.544 10.5756
18.877487 92.554 10.5590
19.014280 92.563 10.5435
19.152065 92.573 10.5290
19.290850 92.583 10.5158
19.430639 92.593 10.5040
19.571442 92.603 10.4947
19.713264 92.614 10.4860
19.856115 92.626 10.4769
20.000000 92.639 10.4660
20.144928 92.653 10.4515
20.290907 92.667 10.4330
20.437943 92.682 10.4103
20.586044 92.697 10.3820
20.735220 92.713 10.3460
20.885475 92.728 10.3041
21.036821 92.742 10.2568
21.189262 92.755 10.2061
21.342808 92.768 10.1544
21.497467 92.780 10.1001
21.653246 92.793 10.0413
21.810154 92.805 9.9811
21.968201 92.815 9.9226
22.127390 92.825 9.8641
22.287735 92.837 9.8060
22.449242 92.849 9.7450
22.611917 92.860 9.6767
22.775772 92.871 9.6051
22.940815 92.879 9.5327
23.107054 92.887 9.4601
23.274498 92.894 9.3888
23.443153 92.901 9.3191
23.613033 92.907 9.2506
23.784142 92.912 9.1861
23.956491 92.915 9.1287
24.130091 92.919 9.0771
24.304947 92.924 9.0317
24.481071 92.930 8.9891
24.658470 92.936 8.9455
24.837156 92.942 8.9021
25.017136 92.948 8.8588
25.198421 92.955 8.8150
25.381020 92.963 8.7700
25.564941 92.970 8.7240
25.750195 92.976 8.6769
25.936790 92.982 8.6301
26.124741 92.988 8.5854
26.314051 92.995 8.5411
26.504732 93.002 8.4954
26.696796 93.009 8.4491
26.890253 93.015 8.4023
27.085112 93.022 8.3551
27.281382 93.029 8.3075
27.479073 93.036 8.2591
27.678198 93.043 8.2087
27.878765 93.049 8.1581
28.080786 93.055 8.1092
28.284271 93.062 8.0601
28.489231 93.069 8.0094
28.695675 93.076 7.9571
28.903616 93.083 7.9025
29.113064 93.089 7.8461
29.324028 93.095 7.7883
29.536524 93.101 7.7291
29.750557 93.107 7.6677
29.966141 93.112 7.6071
30.183289 93.116 7.5504
30.402010 93.119 7.4961
30.622314 93.124 7.4447
30.844217 93.130 7.3931
31.067726 93.136 7.3383
31.292856 93.143 7.2801
31.519617 93.150 7.2173
31.748020 93.156 7.1491
31.978081 93.162 7.0742
32.209808 93.168 6.9931
32.443211 93.172 6.9049
32.678310 93.175 6.8131
32.915108 93.175 6.7201
33.153625 93.174 6.6291
33.393871 93.171 6.5439
33.635857 93.167 6.4661
33.879597 93.161 6.3987
34.125103 93.154 6.3411
34.372387 93.147 6.2939
34.621464 93.141 6.2561
34.872345 93.135 6.2270
35.125042 93.129 6.2060
35.379574 93.124 6.1931
35.635948 93.120 6.1850
35.894180 93.118 6.1786
36.154285 93.117 6.1730
36.416275 93.116 6.1662
36.680161 93.116 6.1590
36.945961 93.116 6.1516
37.213688 93.116 6.1440
37.483353 93.116 6.1358
37.754974 93.116 6.1280
38.028561 93.116 6.1214
38.304131 93.116 6.1160
38.581699 93.116 6.1116
38.861279 93.116 6.1090
39.142883 93.116 6.1086
39.426529 93.116 6.1110
39.712231 93.116 6.1167
40.000000 93.116 6.1260
40.289856 93.116 6.1391
40.581814 93.117 6.1560
40.875885 93.118 6.1770
41.172089 93.121 6.2010
41.470440 93.125 6.2275
41.770950 93.130 6.2540
42.073643 93.136 6.2770
42.378525 93.142 6.2980
42.685616 93.149 6.3173
42.994934 93.157 6.3350
43.306492 93.165 6.3515
43.620308 93.173 6.3660
43.936401 93.183 6.3777
44.254780 93.193 6.3870
44.575470 93.203 6.3942
44.898483 93.213 6.3990
45.223835 93.225 6.4019
45.551544 93.238 6.4000
45.881630 93.252 6.3909
46.214108 93.267 6.3730
46.548996 93.282 6.3439
46.886307 93.297 6.3041
47.226067 93.312 6.2530
47.568283 93.326 6.1921
47.912983 93.338 6.1219
48.260181 93.349 6.0451
48.609894 93.358 5.9643
48.962143 93.366 5.8811
49.316940 93.372 5.7979
49.674313 93.377 5.7161
50.034271 93.380 5.6375
50.396843 93.381 5.5631
50.762039 93.382 5.4950
51.129883 93.383 5.4321
51.500389 93.383 5.3738
51.873581 93.383 5.3201
52.249481 93.383 5.2711
52.628101 93.383 5.2261
53.009464 93.383 5.1841
53.393593 93.383 5.1451
53.780506 93.383 5.1083
54.170223 93.383 5.0741
54.562763 93.383 5.0423
54.958145 93.383 5.0130
55.356396 93.383 4.9862
55.757530 93.383 4.9620
56.161572 93.383 4.9407
56.568542 93.383 4.9220
56.978462 93.383 4.9058
57.391350 93.383 4.8930
57.807232 93.383 4.8848
58.226128 93.383 4.8810
58.648056 93.383 4.8817
59.073048 93.384 4.8880
59.501114 93.385 4.9013
59.932281 93.387 4.9200
60.366577 93.391 4.9435
60.804020 93.396 4.9700
61.244629 93.403 4.9983
61.688435 93.412 5.0260
62.135452 93.423 5.0512
62.585712 93.436 5.0710
63.039234 93.451 5.0821
63.496040 93.467 5.0830
63.956161 93.485 5.0720
64.419617 93.504 5.0471
64.886421 93.523 5.0057
65.356621 93.543 4.9481
65.830215 93.562 4.8724
66.307251 93.580 4.7822
66.787743 93.595 4.6796
67.271713 93.609 4.5672
67.759193 93.621 4.4475
68.250206 93.631 4.3222
68.744774 93.638 4.1931
69.242928 93.643 4.0632
69.744690 93.646 3.9364
70.250084 93.648 3.8122
70.759148 93.649 3.6921
71.271896 93.648 3.5752
71.788361 93.647 3.4608
72.308571 93.645 3.3502
72.832550 93.641 3.2438
73.360321 93.636 3.1432
73.891922 93.630 3.0507
74.427376 93.623 2.9652
74.966705 93.617 2.8861
75.509949 93.610 2.8131
76.057121 93.603 2.7459
76.608261 93.596 2.6841
77.163399 93.589 2.6277
77.722557 93.583 2.5751
78.285767 93.577 2.5239
78.853058 93.570 2.4761
79.424461 93.563 2.4332
80.000000 93.556 2.3951
80.579712 93.549 2.3621
81.163628 93.543 2.3340
81.751770 93.537 2.3110
82.344177 93.531 2.2930
82.940880 93.526 2.2811
83.541901 93.522 2.2720
84.147285 93.520 2.2631
84.757050 93.518 2.2530
85.371231 93.517 2.2393
85.989868 93.516 2.2230
86.612984 93.516 2.2044
87.240616 93.516 2.1830
87.872803 93.516 2.1587
88.509560 93.516 2.1321
89.150940 93.516 2.1039
89.796967 93.516 2.0741
90.447670 93.516 2.0426
91.103088 93.516 2.0091
91.763260 93.516 1.9728
92.428215 93.516 1.9341
93.097992 93.516 1.8929
93.772614 93.515 1.8491
94.452133 93.514 1.8015
95.136566 93.511 1.7531
95.825966 93.507 1.7055
96.520363 93.502 1.6611
97.219788 93.496 1.6226
97.924286 93.489 1.5901
98.633881 93.483 1.5649
99.348625 93.477 1.5460
100.068542 93.470 1.5331
100.793686 93.464 1.5260
101.524078 93.459 1.5259
102.259766 93.455 1.5290
103.000778 93.453 1.5324
103.747162 93.451 1.5350
104.498962 93.450 1.5347
105.256203 93.450 1.5320
106.018929 93.450 1.5267
106.787186 93.450 1.5190
107.561012 93.450 1.5089
108.340446 93.450 1.4970
109.125526 93.450 1.4841
109.916290 93.450 1.4700
110.712791 93.450 1.4550
111.515060 93.450 1.4390
112.323143 93.450 1.4220
113.137085 93.450 1.4040
113.956924 93.450 1.3854
114.782700 93.450 1.3661
115.614464 93.450 1.3464
116.452255 93.450 1.3260
117.296112 93.450 1.3049
118.146095 93.450 1.2830
119.002228 93.450 1.2605
119.864563 93.450 1.2371
120.733154 93.450 1.2125
121.608040 93.450 1.1871
122.489258 93.450 1.1610
123.376869 93.450 1.1341
124.270905 93.450 1.1061
125.171425 93.450 1.0771
126.078468 93.450 1.0468
126.992081 93.450 1.0151
127.912323 93.450 0.9820
128.839233 93.450 0.9471
129.772842 93.450 0.9099
130.713242 93.450 0.8701
131.660431 93.450 0.8273
132.614502 93.450 0.7811
133.575485 93.449 0.7310
134.543427 93.448 0.6771
135.518387 93.446 0.6189
136.500412 93.444 0.5581
137.489548 93.440 0.4956
138.485855 93.435 0.4332
139.489380 93.429 0.3731
140.500168 93.423 0.3151
141.518295 93.416 0.2599
142.543793 93.408 0.2061
143.576721 93.400 0.1525
144.617142 93.392 0.1001
145.665100 93.382 0.0499
146.720642 93.372 0.0011
147.783844 93.362 -0.0467
148.854752 93.352 -0.0939
149.933411 93.340 -0.1421
151.019897 93.327 -0.1879
152.114243 93.312 -0.2289
153.216522 93.296 -0.2639
154.326797 93.279 -0.2913
155.445114 93.261 -0.3100
156.571533 93.242 -0.3184
157.706116 93.222 -0.3160
158.848923 93.202 -0.3012
160.000000 93.182 -0.2751
161.159424 93.162 -0.2389
162.327255 93.142 -0.1911
163.503540 93.122 -0.1301
164.688354 93.103 -0.0572
165.881760 93.086 0.0268
167.083801 93.069 0.1217
168.294571 93.053 0.2273
169.514099 93.038 0.3427
170.742462 93.026 0.4674
171.979736 93.015 0.5996
173.225967 93.007 0.7377
174.481232 93.000 0.8807
175.745605 92.995 1.0280
177.019119 92.993 1.1766
178.301880 92.994 1.3244
179.593933 92.998 1.4676
180.895340 93.004 1.6011
182.206177 93.011 1.7277
183.526520 93.018 1.8490
184.856430 93.027 1.9637
186.195984 93.038 2.0714
187.545227 93.050 2.1708
188.904266 93.062 2.2592
190.273132 93.075 2.3398
191.651932 93.087 2.4149
193.040726 93.100 2.4838
194.439575 93.114 2.5468
195.848572 93.128 2.6038
197.267761 93.141 2.6543
198.697250 93.155 2.6999
200.137085 93.170 2.7431
201.587372 93.185 2.7809
203.048157 93.201 2.8110
204.519531 93.217 2.8339
206.001556 93.233 2.8490
207.494324 93.248 2.8580
208.997925 93.263 2.8635
210.512405 93.278 2.8630
212.037857 93.295 2.8544
213.574371 93.311 2.8390
215.122025 93.326 2.8170
216.680893 93.340 2.7901
218.251053 93.354 2.7607
219.832581 93.369 2.7271
221.425583 93.384 2.6882
223.030121 93.398 2.6441
224.646286 93.411 2.5943
226.274170 93.425 2.5391
227.913849 93.439 2.4793
229.565399 93.454 2.4132
231.228928 93.468 2.3392
232.904510 93.481 2.2583
234.592224 93.494 2.1718
236.292191 93.506 2.0773
238.004456 93.519 1.9723
239.729126 93.532 1.8573
241.466309 93.543 1.7315
243.216080 93.552 1.5964
244.978516 93.561 1.4530
246.753738 93.568 1.3015
248.541809 93.573 1.1414
250.342850 93.576 0.9745
252.156937 93.577 0.8015
253.984161 93.576 0.6245
255.824646 93.573 0.4451
257.678467 93.567 0.2645
259.545685 93.559 0.0841
261.426483 93.548 -0.0956
263.320862 93.535 -0.2742
265.229004 93.520 -0.4495
267.150970 93.501 -0.6199
269.086853 93.480 -0.7825
271.036774 93.457 -0.9339
273.000824 93.432 -1.0746
274.979095 93.405 -1.2044
276.971710 93.376 -1.3217
278.978760 93.346 -1.4247
281.000336 93.314 -1.5138
283.036591 93.282 -1.5882
285.087585 93.250 -1.6488
287.153442 93.217 -1.6961
289.234283 93.183 -1.7309
291.330200 93.150 -1.7540
293.441284 93.117 -1.7660
295.567688 93.084 -1.7673
297.709503 93.050 -1.7590
299.866821 93.017 -1.7429
302.039795 92.983 -1.7181
304.228485 92.949 -1.6842
306.433044 92.914 -1.6411
308.653595 92.880 -1.5899
310.890228 92.844 -1.5272
313.143066 92.807 -1.4512
315.412231 92.768 -1.3583
317.697845 92.728 -1.2447
320.000000 92.688 -1.1094
322.318848 92.649 -0.9503
324.654510 92.610 -0.7666
327.007080 92.572 -0.5563
329.376709 92.536 -0.3208
331.763519 92.504 -0.0589
334.167603 92.475 0.2231
336.589142 92.451 0.5204
339.028198 92.431 0.8301
341.484924 92.415 1.1481
343.959473 92.404 1.4721
346.451935 92.397 1.7997
348.962463 92.395 2.1271
351.491211 92.397 2.4510
354.038239 92.404 2.7681
356.603760 92.415 3.0748
359.187866 92.430 3.3691
361.790680 92.448 3.6489
364.412354 92.469 3.9113
367.053040 92.493 4.1532
369.712860 92.520 4.3734
372.391968 92.548 4.5686
375.090454 92.577 4.7405
377.808533 92.606 4.8890
380.546265 92.634 5.0157
383.303864 92.662 5.1202
386.081451 92.688 5.2088
388.879150 92.710 5.2864
391.697144 92.731 5.3558
394.535522 92.752 5.4212
397.394501 92.771 5.4828
400.274170 92.789 5.5411
403.174744 92.805 5.5998
406.096313 92.820 5.6637
409.039062 92.835 5.7308
412.003113 92.851 5.8015
414.988647 92.868 5.8738
417.995850 92.886 5.9463
421.024811 92.905 6.0178
424.075714 92.926 6.0877
427.148743 92.948 6.1518
430.244049 92.973 6.2067
433.361786 92.999 6.2499
436.502106 93.026 6.2791
439.665161 93.055 6.2910
442.851166 93.085 6.2822
446.060242 93.116 6.2501
449.292572 93.147 6.1904
452.548340 93.176 6.1043
455.827698 93.203 5.9907
459.130798 93.227 5.8535
462.457855 93.246 5.6940
465.809021 93.261 5.5186
469.184448 93.270 5.3312
472.584381 93.274 5.1396
476.008911 93.270 4.9504
479.458252 93.261 4.7715
482.932617 93.246 4.6118
486.432159 93.227 4.4754
489.957031 93.204 4.3684
493.507477 93.178 4.2932
497.083618 93.150 4.2549
500.685699 93.122 4.2510
504.313873 93.096 4.2830
507.968323 93.072 4.3438
511.649292 93.052 4.4292
515.356934 93.036 4.5316
519.091370 93.026 4.6451
522.852966 93.020 4.7606
526.641724 93.019 4.8696
530.458008 93.023 4.9657
534.301941 93.030 5.0408
538.173706 93.040 5.0919
542.073547 93.050 5.1123
546.001648 93.059 5.1051
549.958191 93.065 5.0682
553.943420 93.068 5.0102
557.957520 93.065 4.9364
562.000671 93.056 4.8553
566.073181 93.042 4.7734
570.175171 93.021 4.7012
574.306885 92.993 4.6480
578.468567 92.959 4.6240
582.660400 92.920 4.6415
586.882568 92.877 4.7037
591.135376 92.833 4.8190
595.419006 92.790 4.9843
599.733643 92.749 5.2020
604.079590 92.712 5.4650
608.456970 92.681 5.7706
612.866089 92.657 6.1088
617.307190 92.642 6.4734
621.780457 92.636 6.8498
626.286133 92.640 7.2242
630.824463 92.653 7.5868
635.395691 92.673 7.9238
640.000000 92.699 8.2330
644.637695 92.728 8.5076
649.309021 92.761 8.7472
654.014160 92.796 8.9479
658.753418 92.832 9.1135
663.527039 92.865 9.2441
668.335205 92.896 9.3477
673.178284 92.923 9.4309
678.056396 92.948 9.4978
682.969849 92.970 9.5528
687.918945 92.989 9.6008
692.903870 93.004 9.6472
697.924927 93.016 9.6958
702.982422 93.026 9.7520
708.076477 93.034 9.8167
713.207520 93.040 9.8914
718.375732 93.044 9.9797
723.581360 93.047 10.0853
728.824707 93.049 10.2095
734.106079 93.052 10.3555
739.425720 93.056 10.5214
744.783936 93.062 10.7076
750.180908 93.070 10.9102
755.617065 93.083 11.1268
761.092529 93.099 11.3542
766.607727 93.119 11.5900
772.162903 93.143 11.8291
777.758301 93.173 12.0674
783.394287 93.207 12.3002
789.071045 93.245 12.5223
794.789001 93.288 12.7323
800.548340 93.333 12.9277
806.349487 93.383 13.1064
812.192627 93.437 13.2661
818.078125 93.494 13.4045
824.006226 93.554 13.5196
829.977295 93.617 13.6087
835.991699 93.683 13.6703
842.049622 93.752 13.6990
848.151428 93.824 13.6898
854.297485 93.899 13.6393
860.488098 93.974 13.5433
866.723572 94.051 13.3986
873.004211 94.127 13.2005
879.330322 94.202 12.9490
885.702332 94.272 12.6410
892.120483 94.338 12.2814
898.585144 94.398 11.8722
905.096680 94.451 11.4188
911.655396 94.495 10.9232
918.261597 94.530 10.3970
924.915710 94.553 9.8478
931.618042 94.565 9.2890
938.368896 94.565 8.7327
945.168762 94.554 8.1900
952.017822 94.532 7.6722
958.916504 94.500 7.1908
965.865234 94.459 6.7594
972.864319 94.412 6.3823
979.914062 94.361 6.0706
987.014954 94.308 5.8168
994.167236 94.258 5.6214
1001.371399 94.211 5.4715
1008.627747 94.170 5.3588
1015.936646 94.134 5.2693
1023.298584 94.106 5.1911
1030.713867 94.085 5.1093
1038.182739 94.070 5.0079
1045.705933 94.059 4.8786
1053.283447 94.051 4.7080
1060.916016 94.042 4.4960
1068.603882 94.031 4.2360
1076.347412 94.015 3.9353
1084.147095 93.992 3.5947
1092.003296 93.959 3.2273
1099.916382 93.915 2.8408
1107.886841 93.859 2.4516
1115.915039 93.790 2.0725
1124.001343 93.707 1.7222
