* Measurement data measured by REW V5.20.13
* Source: C:\Users\kurin\Desktop\Targets and Curves\Resolve\Img\Files\Dunu DK2001_SPL.txt
* Format: Comma/Tab/Space delimited data
* Dated: Aug 14, 2023 3:11:49 PM
* REW Settings:
*  C-weighting compensation: Off
*  Target level: 75.0 dB
* Note: ; Measurement imported from C:\Users\kurin\Desktop\Targets and Curves\Resolve\Img\Files\Dunu DK2001_SPL.txt Format: Comma/Tab/Space delimited data 623 values loaded, 5 Hz to 39,792 Hz log spaced 
* Measurement: Dunu DK2001_SPL
* Smoothing: 1/48 octave
* Frequency Step: 1/96 octave
* Start Frequency: 5.000 Hz
*
* Freq(Hz) SPL(dB) Phase(degrees)
5.000000 90.431 7.9760
5.036232 90.434 7.9711
5.072727 90.437 7.9660
5.109486 90.441 7.9604
5.146511 90.445 7.9540
5.183805 90.450 7.9459
5.221369 90.456 7.9370
5.259205 90.461 7.9282
5.297316 90.467 7.9190
5.335702 90.473 7.9091
5.374367 90.480 7.8990
5.413311 90.486 7.8896
5.452538 90.493 7.8800
5.492050 90.499 7.8696
5.531847 90.506 7.8590
5.571934 90.512 7.8490
5.612310 90.519 7.8390
5.652979 90.525 7.8286
5.693943 90.532 7.8180
5.735204 90.539 7.8075
5.776763 90.545 7.7970
5.818624 90.551 7.7865
5.860788 90.557 7.7760
5.903258 90.563 7.7656
5.946035 90.570 7.7550
5.989123 90.576 7.7441
6.032523 90.583 7.7330
6.076237 90.590 7.7215
6.120268 90.596 7.7100
6.164618 90.603 7.6990
6.209289 90.609 7.6880
6.254284 90.616 7.6766
6.299605 90.622 7.6650
6.345255 90.629 7.6535
6.391235 90.635 7.6420
6.437549 90.642 7.6306
6.484198 90.648 7.6190
6.531185 90.655 7.6071
6.578513 90.661 7.5950
6.626183 90.667 7.5831
6.674199 90.673 7.5710
6.722563 90.679 7.5586
6.771278 90.686 7.5460
6.820345 90.692 7.5335
6.869768 90.699 7.5210
6.919549 90.705 7.5086
6.969691 90.712 7.4960
7.020196 90.718 7.4831
7.071068 90.725 7.4700
7.122308 90.731 7.4570
7.173919 90.738 7.4440
7.225904 90.744 7.4311
7.278266 90.751 7.4180
7.331007 90.757 7.4046
7.384131 90.764 7.3910
7.437639 90.771 7.3775
7.491535 90.777 7.3640
7.545822 90.783 7.3506
7.600502 90.789 7.3370
7.655579 90.795 7.3231
7.711054 90.802 7.3090
7.766932 90.809 7.2951
7.823214 90.815 7.2810
7.879904 90.822 7.2666
7.937005 90.828 7.2520
7.994520 90.835 7.2376
8.052452 90.841 7.2230
8.110803 90.847 7.2081
8.169578 90.854 7.1930
8.228777 90.860 7.1781
8.288406 90.867 7.1630
8.348468 90.873 7.1475
8.408964 90.880 7.1320
8.469899 90.887 7.1171
8.531276 90.893 7.1020
8.593097 90.899 7.0861
8.655366 90.905 7.0700
8.718086 90.911 7.0540
8.781260 90.918 7.0380
8.844893 90.924 7.0221
8.908987 90.931 7.0060
8.973545 90.938 6.9896
9.038571 90.944 6.9730
9.104069 90.951 6.9566
9.170040 90.957 6.9400
9.236490 90.964 6.9231
9.303422 90.970 6.9060
9.370838 90.977 6.8891
9.438744 90.983 6.8720
9.507140 90.990 6.8546
9.576033 90.996 6.8370
9.645425 91.003 6.8196
9.715320 91.009 6.8020
9.785721 91.015 6.7841
9.856632 91.021 6.7660
9.928058 91.027 6.7476
10.000000 91.034 6.7290
10.072464 91.040 6.7105
10.145453 91.047 6.6920
10.218971 91.053 6.6736
10.293022 91.060 6.6550
10.367610 91.066 6.6361
10.442738 91.073 6.6170
10.518411 91.079 6.5976
10.594631 91.086 6.5780
10.671404 91.092 6.5586
10.748734 91.099 6.5390
10.826623 91.105 6.5191
10.905077 91.112 6.4990
10.984100 91.118 6.4791
11.063695 91.125 6.4590
11.143867 91.132 6.4386
11.224621 91.138 6.4180
11.305959 91.144 6.3971
11.387886 91.150 6.3760
11.470407 91.156 6.3551
11.553527 91.163 6.3340
11.637249 91.170 6.3126
11.721577 91.176 6.2910
11.806517 91.182 6.2691
11.892071 91.189 6.2470
11.978246 91.196 6.2251
12.065045 91.202 6.2030
12.152473 91.208 6.1806
12.240536 91.215 6.1580
12.329235 91.221 6.1351
12.418578 91.228 6.1120
12.508568 91.234 6.0891
12.599211 91.241 6.0660
12.690510 91.248 6.0426
12.782471 91.254 6.0190
12.875097 91.260 5.9951
12.968395 91.266 5.9710
13.062370 91.272 5.9471
13.157025 91.279 5.9230
13.252366 91.285 5.8986
13.348398 91.292 5.8740
13.445127 91.298 5.8491
13.542556 91.305 5.8240
13.640691 91.311 5.7986
13.739536 91.318 5.7730
13.839099 91.324 5.7471
13.939383 91.331 5.7210
14.040393 91.337 5.6951
14.142136 91.344 5.6690
14.244616 91.351 5.6426
14.347837 91.357 5.6160
14.451808 91.364 5.5891
14.556532 91.370 5.5620
14.662014 91.376 5.5346
14.768262 91.382 5.5070
14.875278 91.388 5.4792
14.983070 91.395 5.4510
15.091644 91.401 5.4227
15.201005 91.408 5.3940
15.311157 91.414 5.3646
15.422109 91.421 5.3350
15.533863 91.427 5.3056
15.646428 91.434 5.2760
15.759809 91.440 5.2461
15.874010 91.447 5.2160
15.989040 91.453 5.1856
16.104904 91.460 5.1550
16.221605 91.466 5.1242
16.339155 91.473 5.0930
16.457554 91.480 5.0617
16.576813 91.486 5.0300
16.696936 91.492 4.9981
16.817928 91.498 4.9660
16.939798 91.504 4.9337
17.062551 91.511 4.9010
17.186193 91.517 4.8681
17.310732 91.524 4.8350
17.436172 91.530 4.8021
17.562521 91.537 4.7690
17.689787 91.543 4.7352
17.817974 91.550 4.7010
17.947090 91.556 4.6672
18.077143 91.563 4.6330
18.208138 91.569 4.5982
18.340080 91.576 4.5630
18.472980 91.582 4.5280
18.606844 91.589 4.4930
18.741676 91.596 4.4582
18.877487 91.602 4.4230
19.014280 91.608 4.3872
19.152065 91.614 4.3510
19.290850 91.620 4.3151
19.430639 91.627 4.2790
19.571442 91.633 4.2425
19.713264 91.640 4.2060
19.856115 91.647 4.1698
20.000000 91.653 4.1340
20.144928 91.659 4.0989
20.290907 91.665 4.0650
20.437943 91.671 4.0326
20.586044 91.677 4.0030
20.735220 91.682 3.9785
20.885475 91.688 3.9570
21.036821 91.696 3.9384
21.189262 91.706 3.9200
21.342808 91.716 3.8994
21.497467 91.727 3.8760
21.653246 91.739 3.8498
21.810154 91.752 3.8170
21.968201 91.767 3.7739
22.127390 91.783 3.7211
22.287735 91.798 3.6576
22.449242 91.812 3.5851
22.611917 91.826 3.5053
22.775772 91.840 3.4161
22.940815 91.854 3.3150
23.107054 91.867 3.2052
23.274498 91.877 3.0889
23.443153 91.885 2.9672
23.613033 91.892 2.8418
23.784142 91.898 2.7131
23.956491 91.902 2.5803
24.130091 91.903 2.4491
24.304947 91.901 2.3242
24.481071 91.896 2.2081
24.658470 91.890 2.1058
24.837156 91.883 2.0161
25.017136 91.876 1.9396
25.198421 91.869 1.8761
25.381020 91.862 1.8259
25.564941 91.855 1.7870
25.750195 91.850 1.7588
25.936790 91.847 1.7380
26.124741 91.845 1.7216
26.314051 91.845 1.7090
26.504732 91.846 1.6991
26.696796 91.848 1.6900
26.890253 91.852 1.6800
27.085112 91.858 1.6670
27.281382 91.865 1.6481
27.479073 91.873 1.6240
27.678198 91.881 1.5946
27.878765 91.889 1.5601
28.080786 91.898 1.5211
28.284271 91.907 1.4761
28.489231 91.917 1.4232
28.695675 91.928 1.3631
28.903616 91.937 1.2951
29.113064 91.946 1.2211
29.324028 91.954 1.1430
29.536524 91.962 1.0601
29.750557 91.969 0.9723
29.966141 91.976 0.8801
30.183289 91.982 0.7829
30.402010 91.987 0.6841
30.622314 91.990 0.5866
30.844217 91.991 0.4911
31.067726 91.992 0.3994
31.292856 91.992 0.3111
31.519617 91.992 0.2265
31.748020 91.992 0.1451
31.978081 91.992 0.0668
32.209808 91.992 -0.0089
32.443211 91.992 -0.0827
32.678310 91.992 -0.1549
32.915108 91.992 -0.2260
33.153625 91.992 -0.2959
33.393871 91.992 -0.3649
33.635857 91.992 -0.4329
33.879597 91.992 -0.4998
34.125103 91.992 -0.5659
34.372387 91.992 -0.6313
34.621464 91.992 -0.6959
34.872345 91.992 -0.7593
35.125042 91.992 -0.8219
35.379574 91.992 -0.8843
35.635948 91.992 -0.9459
35.894180 91.992 -1.0064
36.154285 91.992 -1.0659
36.416275 91.992 -1.1248
36.680161 91.992 -1.1829
36.945961 91.992 -1.2400
37.213688 91.992 -1.2959
37.483353 91.992 -1.3504
37.754974 91.992 -1.4029
38.028561 91.992 -1.4532
38.304131 91.992 -1.5009
38.581699 91.993 -1.5457
38.861279 91.994 -1.5879
39.142883 91.995 -1.6273
39.426529 91.998 -1.6659
39.712231 92.003 -1.7046
40.000000 92.009 -1.7469
40.289856 92.016 -1.7969
40.581814 92.023 -1.8539
40.875885 92.030 -1.9186
41.172089 92.037 -1.9909
41.470440 92.045 -2.0709
41.770950 92.052 -2.1579
42.073643 92.058 -2.2524
42.378525 92.062 -2.3509
42.685616 92.064 -2.4501
42.994934 92.066 -2.5489
43.306492 92.067 -2.6445
43.620308 92.068 -2.7379
43.936401 92.068 -2.8285
44.254780 92.068 -2.9169
44.575470 92.068 -3.0031
44.898483 92.068 -3.0879
45.223835 92.068 -3.1718
45.551544 92.068 -3.2549
45.881630 92.068 -3.3371
46.214108 92.068 -3.4189
46.548996 92.068 -3.5010
46.886307 92.068 -3.5829
47.226067 92.068 -3.6639
47.568283 92.068 -3.7449
47.912983 92.068 -3.8263
48.260181 92.068 -3.9079
48.609894 92.068 -3.9893
48.962143 92.068 -4.0709
49.316940 92.068 -4.1527
49.674313 92.068 -4.2349
50.034271 92.068 -4.3172
50.396843 92.068 -4.3999
50.762039 92.068 -4.4826
51.129883 92.068 -4.5659
51.500389 92.068 -4.6501
51.873581 92.068 -4.7349
52.249481 92.068 -4.8197
52.628101 92.068 -4.9049
53.009464 92.068 -4.9905
53.393593 92.068 -5.0769
53.780506 92.068 -5.1645
54.170223 92.068 -5.2529
54.562763 92.068 -5.3414
54.958145 92.068 -5.4309
55.356396 92.068 -5.5218
55.757530 92.068 -5.6139
56.161572 92.068 -5.7067
56.568542 92.068 -5.8008
56.978462 92.068 -5.8965
57.391350 92.068 -5.9938
57.807232 92.068 -6.0926
58.226128 92.068 -6.1938
58.648056 92.068 -6.2987
59.073048 92.068 -6.4068
59.501114 92.067 -6.5182
59.932281 92.066 -6.6328
60.366577 92.064 -6.7515
60.804020 92.062 -6.8718
61.244629 92.058 -6.9921
61.688435 92.052 -7.1098
62.135452 92.045 -7.2217
62.585712 92.037 -7.3278
63.039234 92.030 -7.4270
63.496040 92.023 -7.5198
63.956161 92.016 -7.6065
64.419617 92.009 -7.6879
64.886421 92.003 -7.7633
65.356621 91.998 -7.8369
65.830215 91.995 -7.9120
66.307251 91.994 -7.9898
66.787743 91.993 -8.0726
67.271713 91.992 -8.1608
67.759193 91.992 -8.2556
68.250206 91.992 -8.3568
68.744774 91.992 -8.4649
69.242928 91.991 -8.5788
69.744690 91.990 -8.6981
70.250084 91.987 -8.8208
70.759148 91.982 -8.9457
71.271896 91.976 -9.0698
71.788361 91.969 -9.1892
72.308571 91.962 -9.3048
72.832550 91.955 -9.4156
73.360321 91.948 -9.5228
73.891922 91.940 -9.6269
74.427376 91.933 -9.7288
74.966705 91.927 -9.8282
75.509949 91.921 -9.9288
76.057121 91.917 -10.0347
76.608261 91.913 -10.1448
77.163399 91.907 -10.2601
77.722557 91.901 -10.3778
78.285767 91.894 -10.4946
78.853058 91.887 -10.6118
79.424461 91.880 -10.7291
80.000000 91.873 -10.8468
80.579712 91.865 -10.9643
81.163628 91.856 -11.0838
81.751770 91.849 -11.2068
82.344177 91.842 -11.3347
82.940880 91.834 -11.4706
83.541901 91.824 -11.6117
84.147285 91.813 -11.7582
84.757050 91.799 -11.9047
85.371231 91.781 -12.0489
85.989868 91.760 -12.1817
86.612984 91.735 -12.2941
87.240616 91.708 -12.3838
87.872803 91.682 -12.4442
88.509560 91.657 -12.4799
89.150940 91.634 -12.4918
89.796967 91.614 -12.4850
90.447670 91.598 -12.4614
91.103088 91.587 -12.4321
91.763260 91.583 -12.4074
92.428215 91.583 -12.3920
93.097992 91.585 -12.3940
93.772614 91.589 -12.4129
94.452133 91.595 -12.4519
95.136566 91.601 -12.5089
95.825966 91.606 -12.5844
96.520363 91.611 -12.6738
97.219788 91.613 -12.7732
97.924286 91.615 -12.8808
98.633881 91.616 -12.9933
99.348625 91.617 -13.1118
100.068542 91.616 -13.2359
100.793686 91.615 -13.3657
101.524078 91.614 -13.5013
102.259766 91.611 -13.6417
103.000778 91.607 -13.7868
103.747162 91.601 -13.9337
104.498962 91.593 -14.0792
105.256203 91.584 -14.2237
106.018929 91.576 -14.3671
106.787186 91.566 -14.5077
107.561012 91.554 -14.6445
108.340446 91.541 -14.7758
109.125526 91.529 -14.8980
109.916290 91.517 -15.0158
110.712791 91.506 -15.1319
111.515060 91.496 -15.2478
112.323143 91.486 -15.3661
113.137085 91.476 -15.4857
113.956924 91.466 -15.6061
114.782700 91.455 -15.7277
115.614464 91.445 -15.8503
116.452255 91.435 -15.9758
117.296112 91.425 -16.1065
118.146095 91.414 -16.2397
119.002228 91.402 -16.3741
119.864563 91.388 -16.5076
120.733154 91.374 -16.6372
121.608040 91.359 -16.7647
122.489258 91.345 -16.8914
123.376869 91.331 -17.0157
124.270905 91.315 -17.1359
125.171425 91.299 -17.2538
126.078468 91.285 -17.3701
126.992081 91.271 -17.4857
127.912323 91.256 -17.6023
128.839233 91.241 -17.7188
129.772842 91.226 -17.8341
130.713242 91.211 -17.9498
131.660431 91.197 -18.0673
132.614502 91.182 -18.1857
133.575485 91.166 -18.3047
134.543427 91.150 -18.4228
135.518387 91.134 -18.5375
136.500412 91.118 -18.6508
137.489548 91.101 -18.7634
138.485855 91.085 -18.8757
139.489380 91.069 -18.9882
140.500168 91.054 -19.1017
141.518295 91.039 -19.2175
142.543793 91.023 -19.3347
143.576721 91.007 -19.4531
144.617142 90.990 -19.5727
145.665100 90.973 -19.6938
146.720642 90.956 -19.8157
147.783844 90.938 -19.9384
148.854752 90.920 -20.0607
149.933411 90.901 -20.1808
151.019897 90.882 -20.2997
152.114243 90.863 -20.4177
153.216522 90.844 -20.5347
154.326797 90.824 -20.6504
155.445114 90.804 -20.7657
156.571533 90.785 -20.8812
157.706116 90.766 -20.9977
158.848923 90.746 -21.1174
160.000000 90.725 -21.2377
161.159424 90.704 -21.3567
162.327255 90.682 -21.4747
163.503540 90.660 -21.5916
164.688354 90.637 -21.7078
165.881760 90.614 -21.8248
167.083801 90.590 -21.9397
168.294571 90.564 -22.0497
169.514099 90.538 -22.1557
170.742462 90.514 -22.2569
171.979736 90.489 -22.3567
173.225967 90.464 -22.4599
174.481232 90.438 -22.5618
175.745605 90.411 -22.6596
177.019119 90.382 -22.7528
178.301880 90.353 -22.8400
179.593933 90.324 -22.9208
180.895340 90.294 -22.9951
182.206177 90.264 -23.0609
183.526520 90.233 -23.1148
184.856430 90.203 -23.1599
186.195984 90.174 -23.1984
187.545227 90.146 -23.2289
188.904266 90.117 -23.2502
190.273132 90.089 -23.2640
191.651932 90.064 -23.2708
193.040726 90.040 -23.2730
194.439575 90.017 -23.2739
195.848572 89.995 -23.2710
197.267761 89.974 -23.2615
198.697250 89.954 -23.2490
200.137085 89.938 -23.2347
201.587372 89.925 -23.2230
203.048157 89.914 -23.2189
204.519531 89.905 -23.2230
206.001556 89.898 -23.2363
207.494324 89.893 -23.2629
208.997925 89.890 -23.3069
210.512405 89.888 -23.3688
212.037857 89.886 -23.4515
213.574371 89.883 -23.5527
215.122025 89.879 -23.6723
216.680893 89.874 -23.8076
218.251053 89.867 -23.9572
219.832581 89.857 -24.1175
221.425583 89.844 -24.2852
223.030121 89.829 -24.4576
224.646286 89.812 -24.6311
226.274170 89.792 -24.8046
227.913849 89.770 -24.9754
229.565399 89.747 -25.1436
231.228928 89.722 -25.3088
232.904510 89.695 -25.4695
234.592224 89.667 -25.6242
236.292191 89.637 -25.7726
238.004456 89.607 -25.9142
239.729126 89.576 -26.0486
241.466309 89.544 -26.1757
243.216080 89.511 -26.2947
244.978516 89.478 -26.4038
246.753738 89.446 -26.5057
248.541809 89.414 -26.6018
250.342850 89.383 -26.6947
252.156937 89.352 -26.7879
253.984161 89.322 -26.8807
255.824646 89.292 -26.9738
257.678467 89.261 -27.0678
259.545685 89.231 -27.1642
261.426483 89.200 -27.2608
263.320862 89.167 -27.3561
265.229004 89.133 -27.4487
267.150970 89.099 -27.5373
269.086853 89.064 -27.6208
271.036774 89.029 -27.6973
273.000824 88.993 -27.7688
274.979095 88.959 -27.8361
276.971710 88.924 -27.8998
278.978760 88.889 -27.9612
281.000336 88.853 -28.0198
283.036591 88.818 -28.0757
285.087585 88.783 -28.1288
287.153442 88.748 -28.1802
289.234283 88.712 -28.2269
291.330200 88.674 -28.2660
293.441284 88.637 -28.2989
295.567688 88.602 -28.3245
297.709503 88.568 -28.3469
299.866821 88.535 -28.3709
302.039795 88.501 -28.3939
304.228485 88.467 -28.4149
306.433044 88.433 -28.4349
308.653595 88.401 -28.4541
310.890228 88.370 -28.4739
313.143066 88.338 -28.4974
315.412231 88.306 -28.5209
317.697845 88.273 -28.5414
320.000000 88.239 -28.5599
322.318848 88.207 -28.5760
324.654510 88.176 -28.5919
327.007080 88.145 -28.6098
329.376709 88.114 -28.6299
331.763519 88.084 -28.6537
334.167603 88.053 -28.6809
336.589142 88.022 -28.7122
339.028198 87.990 -28.7459
341.484924 87.958 -28.7813
343.959473 87.924 -28.8169
346.451935 87.889 -28.8513
348.962463 87.853 -28.8829
351.491211 87.817 -28.9092
354.038239 87.780 -28.9309
356.603760 87.743 -28.9479
359.187866 87.706 -28.9610
361.790680 87.669 -28.9710
364.412354 87.632 -28.9780
367.053040 87.595 -28.9824
369.712860 87.557 -28.9840
372.391968 87.520 -28.9824
375.090454 87.482 -28.9780
377.808533 87.444 -28.9711
380.546265 87.406 -28.9610
383.303864 87.368 -28.9470
386.081451 87.329 -28.9291
388.879150 87.291 -28.9063
391.697144 87.253 -28.8801
394.535522 87.216 -28.8513
397.394501 87.178 -28.8201
400.274170 87.140 -28.7867
403.174744 87.102 -28.7511
406.096313 87.065 -28.7129
409.039062 87.028 -28.6731
412.003113 86.992 -28.6332
414.988647 86.955 -28.5921
417.995850 86.918 -28.5496
421.024811 86.880 -28.5051
424.075714 86.843 -28.4578
427.148743 86.806 -28.4082
430.244049 86.768 -28.3565
433.361786 86.730 -28.3022
436.502106 86.693 -28.2445
439.665161 86.655 -28.1842
442.851166 86.618 -28.1219
446.060242 86.580 -28.0572
449.292572 86.543 -27.9896
452.548340 86.505 -27.9192
455.827698 86.468 -27.8461
459.130798 86.430 -27.7703
462.457855 86.392 -27.6921
465.809021 86.354 -27.6113
469.184448 86.317 -27.5276
472.584381 86.279 -27.4413
476.008911 86.242 -27.3520
479.458252 86.204 -27.2603
482.932617 86.167 -27.1667
486.432159 86.129 -27.0703
489.957031 86.091 -26.9701
493.507477 86.053 -26.8663
497.083618 86.015 -26.7598
500.685699 85.976 -26.6484
504.313873 85.937 -26.5306
507.968323 85.897 -26.4054
511.649292 85.858 -26.2705
515.356934 85.820 -26.1285
519.091370 85.783 -25.9819
522.852966 85.746 -25.8295
526.641724 85.709 -25.6702
530.458008 85.673 -25.5065
534.301941 85.640 -25.3400
538.173706 85.608 -25.1736
542.073547 85.577 -25.0113
546.001648 85.547 -24.8515
549.958191 85.517 -24.6940
553.943420 85.486 -24.5385
557.957520 85.456 -24.3854
562.000671 85.426 -24.2335
566.073181 85.395 -24.0831
570.175171 85.362 -23.9305
574.306885 85.328 -23.7719
578.468567 85.294 -23.6076
582.660400 85.261 -23.4370
586.882568 85.227 -23.2596
591.135376 85.193 -23.0743
595.419006 85.160 -22.8827
599.733643 85.129 -22.6856
604.079590 85.098 -22.4847
608.456970 85.067 -22.2822
612.866089 85.037 -22.0777
617.307190 85.008 -21.8718
621.780457 84.978 -21.6637
626.286133 84.948 -21.4530
630.824463 84.918 -21.2387
635.395691 84.889 -21.0203
640.000000 84.859 -20.7958
644.637695 84.828 -20.5639
649.309021 84.797 -20.3218
654.014160 84.766 -20.0645
658.753418 84.737 -19.7979
663.527039 84.712 -19.5259
668.335205 84.688 -19.2499
673.178284 84.664 -18.9730
678.056396 84.641 -18.6939
682.969849 84.620 -18.4115
687.918945 84.600 -18.1290
692.903870 84.582 -17.8500
697.924927 84.565 -17.5730
702.982422 84.547 -17.2983
708.076477 84.529 -17.0230
713.207520 84.511 -16.7443
718.375732 84.494 -16.4620
723.581360 84.477 -16.1748
728.824707 84.460 -15.8830
734.106079 84.444 -15.5866
739.425720 84.429 -15.2861
744.783936 84.414 -14.9831
750.180908 84.400 -14.6751
755.617065 84.386 -14.3591
761.092529 84.374 -14.0382
766.607727 84.364 -13.7141
772.162903 84.356 -13.3872
777.758301 84.347 -13.0589
783.394287 84.339 -12.7282
789.071045 84.333 -12.3937
794.789001 84.329 -12.0582
800.548340 84.327 -11.7241
806.349487 84.325 -11.3912
812.192627 84.324 -11.0607
818.078125 84.323 -10.7312
824.006226 84.323 -10.4019
829.977295 84.323 -10.0712
835.991699 84.323 -9.7375
842.049622 84.323 -9.3993
848.151428 84.324 -9.0546
854.297485 84.325 -8.7023
860.488098 84.327 -8.3405
866.723572 84.330 -7.9694
873.004211 84.335 -7.5872
879.330322 84.342 -7.1974
885.702332 84.352 -6.8030
892.120483 84.365 -6.4044
898.585144 84.380 -6.0016
905.096680 84.399 -5.5995
911.655396 84.422 -5.2019
918.261597 84.448 -4.8124
924.915710 84.476 -4.4373
931.618042 84.505 -4.0723
938.368896 84.534 -3.7149
945.168762 84.565 -3.3663
952.017822 84.598 -3.0264
958.916504 84.632 -2.6962
965.865234 84.666 -2.3783
972.864319 84.700 -2.0681
979.914062 84.733 -1.7624
