* Measurement data measured by REW V5.20.13
* Source: C:\Users\kurin\Desktop\Targets and Curves\Resolve\Img\Files\Legacy 5_SPL.txt
* Format: Comma/Tab/Space delimited data
* Dated: Aug 14, 2023 5:46:26 PM
* REW Settings:
*  C-weighting compensation: Off
*  Target level: 75.0 dB
* Note: ; Measurement imported from C:\Users\kurin\Desktop\Targets and Curves\Resolve\Img\Files\Legacy 5_SPL.txt Format: Comma/Tab/Space delimited data 623 values loaded, 5 Hz to 39,792 Hz log spaced 
* Measurement: Legacy 5_SPL
* Smoothing: 1/48 octave
* Frequency Step: 1/96 octave
* Start Frequency: 5.000 Hz
*
* Freq(Hz) SPL(dB) Phase(degrees)
5.000000 95.340 -13.4240
5.036232 95.336 -13.4288
5.072727 95.332 -13.4340
5.109486 95.327 -13.4400
5.146511 95.322 -13.4470
5.183805 95.316 -13.4555
5.221369 95.309 -13.4650
5.259205 95.302 -13.4751
5.297316 95.294 -13.4860
5.335702 95.286 -13.4978
5.374367 95.277 -13.5100
5.413311 95.269 -13.5219
5.452538 95.261 -13.5340
5.492050 95.253 -13.5464
5.531847 95.244 -13.5590
5.571934 95.236 -13.5714
5.612310 95.228 -13.5840
5.652979 95.219 -13.5969
5.693943 95.211 -13.6100
5.735204 95.203 -13.6229
5.776763 95.195 -13.6360
5.818624 95.187 -13.6494
5.860788 95.178 -13.6630
5.903258 95.170 -13.6764
5.946035 95.162 -13.6900
5.989123 95.154 -13.7040
6.032523 95.146 -13.7180
6.076237 95.138 -13.7314
6.120268 95.129 -13.7450
6.164618 95.121 -13.7594
6.209289 95.113 -13.7740
6.254284 95.104 -13.7885
6.299605 95.096 -13.8030
6.345255 95.088 -13.8174
6.391235 95.080 -13.8320
6.437549 95.072 -13.8469
6.484198 95.063 -13.8620
6.531185 95.055 -13.8770
6.578513 95.047 -13.8920
6.626183 95.038 -13.9069
6.674199 95.030 -13.9220
6.722563 95.022 -13.9379
6.771278 95.014 -13.9540
6.820345 95.006 -13.9695
6.869768 94.997 -13.9850
6.919549 94.989 -14.0009
6.969691 94.981 -14.0170
7.020196 94.973 -14.0334
7.071068 94.964 -14.0500
7.122308 94.956 -14.0664
7.173919 94.948 -14.0830
7.225904 94.940 -14.0999
7.278266 94.932 -14.1170
7.331007 94.924 -14.1339
7.384131 94.915 -14.1510
7.437639 94.907 -14.1684
7.491535 94.899 -14.1860
7.545822 94.891 -14.2034
7.600502 94.882 -14.2210
7.655579 94.874 -14.2389
7.711054 94.866 -14.2570
7.766932 94.857 -14.2749
7.823214 94.849 -14.2930
7.879904 94.841 -14.3114
7.937005 94.833 -14.3300
7.994520 94.825 -14.3489
8.052452 94.816 -14.3680
8.110803 94.808 -14.3869
8.169578 94.800 -14.4060
8.228777 94.792 -14.4254
8.288406 94.783 -14.4450
8.348468 94.775 -14.4649
8.408964 94.767 -14.4850
8.469899 94.758 -14.5050
8.531276 94.750 -14.5250
8.593097 94.742 -14.5449
8.655366 94.734 -14.5650
8.718086 94.726 -14.5859
8.781260 94.718 -14.6070
8.844893 94.710 -14.6279
8.908987 94.701 -14.6490
8.973545 94.693 -14.6704
9.038571 94.685 -14.6920
9.104069 94.676 -14.7134
9.170040 94.668 -14.7350
9.236490 94.660 -14.7569
9.303422 94.652 -14.7790
9.370838 94.644 -14.8014
9.438744 94.635 -14.8240
9.507140 94.627 -14.8469
9.576033 94.619 -14.8700
9.645425 94.611 -14.8929
9.715320 94.602 -14.9160
9.785721 94.594 -14.9399
9.856632 94.586 -14.9640
9.928058 94.577 -14.9880
10.000000 94.569 -15.0120
10.072464 94.561 -15.0359
10.145453 94.553 -15.0600
10.218971 94.545 -15.0849
10.293022 94.536 -15.1100
10.367610 94.528 -15.1349
10.442738 94.520 -15.1600
10.518411 94.512 -15.1859
10.594631 94.504 -15.2120
10.671404 94.495 -15.2379
10.748734 94.487 -15.2640
10.826623 94.479 -15.2904
10.905077 94.471 -15.3170
10.984100 94.463 -15.3439
11.063695 94.454 -15.3710
11.143867 94.446 -15.3984
11.224621 94.438 -15.4260
11.305959 94.430 -15.4539
11.387886 94.421 -15.4820
11.470407 94.413 -15.5104
11.553527 94.405 -15.5390
11.637249 94.397 -15.5679
11.721577 94.388 -15.5970
11.806517 94.380 -15.6263
11.892071 94.372 -15.6560
11.978246 94.364 -15.6859
12.065045 94.355 -15.7160
12.152473 94.347 -15.7464
12.240536 94.339 -15.7770
12.329235 94.331 -15.8079
12.418578 94.322 -15.8390
12.508568 94.314 -15.8703
12.599211 94.306 -15.9020
12.690510 94.298 -15.9344
12.782471 94.290 -15.9670
12.875097 94.282 -15.9993
12.968395 94.273 -16.0320
13.062370 94.265 -16.0652
13.157025 94.257 -16.0990
13.252366 94.249 -16.1334
13.348398 94.240 -16.1680
13.445127 94.232 -16.2023
13.542556 94.224 -16.2370
13.640691 94.216 -16.2723
13.739536 94.207 -16.3080
13.839099 94.199 -16.3438
13.939383 94.191 -16.3800
14.040393 94.183 -16.4168
14.142136 94.174 -16.4540
14.244616 94.166 -16.4913
14.347837 94.158 -16.5290
14.451808 94.149 -16.5673
14.556532 94.141 -16.6060
14.662014 94.133 -16.6447
14.768262 94.125 -16.6840
14.875278 94.117 -16.7242
14.983070 94.108 -16.7650
15.091644 94.100 -16.8058
15.201005 94.092 -16.8470
15.311157 94.084 -16.8887
15.422109 94.075 -16.9310
15.533863 94.067 -16.9737
15.646428 94.059 -17.0170
15.759809 94.051 -17.0607
15.874010 94.043 -17.1050
15.989040 94.035 -17.1497
16.104904 94.026 -17.1950
16.221605 94.018 -17.2412
16.339155 94.010 -17.2879
16.457554 94.002 -17.3347
16.576813 93.993 -17.3820
16.696936 93.985 -17.4302
16.817928 93.977 -17.4790
16.939798 93.969 -17.5281
17.062551 93.960 -17.5779
17.186193 93.952 -17.6286
17.310732 93.944 -17.6800
17.436172 93.936 -17.7321
17.562521 93.927 -17.7850
17.689787 93.919 -17.8385
17.817974 93.911 -17.8929
17.947090 93.903 -17.9485
18.077143 93.894 -18.0050
18.208138 93.886 -18.0620
18.340080 93.878 -18.1199
18.472980 93.870 -18.1793
18.606844 93.861 -18.2400
18.741676 93.853 -18.3021
18.877487 93.845 -18.3659
19.014280 93.837 -18.4318
19.152065 93.829 -18.4999
19.290850 93.821 -18.5706
19.430639 93.812 -18.6439
19.571442 93.802 -18.7206
19.713264 93.792 -18.7989
19.856115 93.782 -18.8786
20.000000 93.770 -18.9569
20.144928 93.756 -19.0318
20.290907 93.742 -19.1009
20.437943 93.727 -19.1606
20.586044 93.713 -19.2130
20.735220 93.700 -19.2582
20.885475 93.688 -19.2980
21.036821 93.676 -19.3331
21.189262 93.666 -19.3670
21.342808 93.659 -19.4014
21.497467 93.653 -19.4409
21.653246 93.649 -19.4907
21.810154 93.646 -19.5509
21.968201 93.643 -19.6246
22.127390 93.640 -19.7089
22.287735 93.635 -19.8032
22.449242 93.629 -19.9039
22.611917 93.622 -20.0078
22.775772 93.613 -20.1139
22.940815 93.604 -20.2209
23.107054 93.593 -20.3269
23.274498 93.580 -20.4296
23.443153 93.567 -20.5289
23.613033 93.555 -20.6223
23.784142 93.543 -20.7139
23.956491 93.533 -20.8063
24.130091 93.523 -20.9019
24.304947 93.514 -21.0042
24.481071 93.504 -21.1119
24.658470 93.493 -21.2243
24.837156 93.482 -21.3418
25.017136 93.470 -21.4648
25.198421 93.458 -21.5919
25.381020 93.444 -21.7226
25.564941 93.429 -21.8549
25.750195 93.413 -21.9866
25.936790 93.395 -22.1168
26.124741 93.376 -22.2444
26.314051 93.356 -22.3678
26.504732 93.335 -22.4852
26.696796 93.313 -22.5969
26.890253 93.292 -22.7024
27.085112 93.270 -22.8029
27.281382 93.248 -22.8998
27.479073 93.225 -22.9919
27.678198 93.203 -23.0779
27.878765 93.181 -23.1599
28.080786 93.161 -23.2388
28.284271 93.141 -23.3169
28.489231 93.121 -23.3967
28.695675 93.102 -23.4779
28.903616 93.082 -23.5610
29.113064 93.063 -23.6459
29.324028 93.044 -23.7327
29.536524 93.025 -23.8209
29.750557 93.005 -23.9103
29.966141 92.984 -23.9999
30.183289 92.964 -24.0882
30.402010 92.943 -24.1759
30.622314 92.922 -24.2621
30.844217 92.901 -24.3499
31.067726 92.882 -24.4415
31.292856 92.863 -24.5378
31.519617 92.842 -24.6414
31.748020 92.821 -24.7499
31.978081 92.799 -24.8620
32.209808 92.776 -24.9778
32.443211 92.751 -25.0980
32.678310 92.724 -25.2188
32.915108 92.694 -25.3388
33.153625 92.662 -25.4529
33.393871 92.627 -25.5566
33.635857 92.589 -25.6469
33.879597 92.550 -25.7207
34.125103 92.509 -25.7739
34.372387 92.466 -25.8022
34.621464 92.423 -25.8040
34.872345 92.381 -25.7752
35.125042 92.341 -25.7191
35.379574 92.305 -25.6344
35.635948 92.273 -25.5301
35.894180 92.248 -25.4105
36.154285 92.229 -25.2882
36.416275 92.218 -25.1736
36.680161 92.214 -25.0771
36.945961 92.215 -25.0123
37.213688 92.220 -24.9800
37.483353 92.225 -24.9876
37.754974 92.230 -25.0299
38.028561 92.233 -25.1070
38.304131 92.233 -25.2108
38.581699 92.229 -25.3374
38.861279 92.220 -25.4748
39.142883 92.204 -25.6105
39.426529 92.185 -25.7418
39.712231 92.165 -25.8610
40.000000 92.144 -25.9708
40.289856 92.122 -26.0712
40.581814 92.099 -26.1629
40.875885 92.076 -26.2454
41.172089 92.054 -26.3229
41.470440 92.034 -26.3982
41.770950 92.015 -26.4739
42.073643 91.996 -26.5529
42.378525 91.977 -26.6369
42.685616 91.960 -26.7286
42.994934 91.942 -26.8279
43.306492 91.922 -26.9373
43.620308 91.901 -27.0518
43.936401 91.879 -27.1663
44.254780 91.855 -27.2828
44.575470 91.831 -27.4031
44.898483 91.806 -27.5238
45.223835 91.777 -27.6436
45.551544 91.745 -27.7578
45.881630 91.713 -27.8606
46.214108 91.680 -27.9549
46.548996 91.647 -28.0422
46.886307 91.613 -28.1209
47.226067 91.578 -28.1894
47.568283 91.543 -28.2479
47.912983 91.509 -28.2950
48.260181 91.475 -28.3339
48.609894 91.442 -28.3670
48.962143 91.411 -28.3960
49.316940 91.382 -28.4229
49.674313 91.353 -28.4490
50.034271 91.325 -28.4751
50.396843 91.297 -28.5040
50.762039 91.271 -28.5380
51.129883 91.246 -28.5779
51.500389 91.220 -28.6265
51.873581 91.194 -28.6799
52.249481 91.166 -28.7358
52.628101 91.137 -28.7929
53.009464 91.107 -28.8495
53.393593 91.077 -28.9049
53.780506 91.046 -28.9585
54.170223 91.013 -29.0079
54.562763 90.979 -29.0501
54.958145 90.945 -29.0859
55.356396 90.912 -29.1151
55.757530 90.878 -29.1390
56.161572 90.844 -29.1592
56.568542 90.810 -29.1740
56.978462 90.776 -29.1814
57.391350 90.742 -29.1830
57.807232 90.710 -29.1789
58.226128 90.678 -29.1710
58.648056 90.647 -29.1615
59.073048 90.617 -29.1500
59.501114 90.588 -29.1360
59.932281 90.560 -29.1230
60.366577 90.534 -29.1143
60.804020 90.508 -29.1100
61.244629 90.482 -29.1125
61.688435 90.456 -29.1190
62.135452 90.429 -29.1275
62.585712 90.402 -29.1380
63.039234 90.375 -29.1499
63.496040 90.347 -29.1620
63.956161 90.318 -29.1733
64.419617 90.289 -29.1830
64.886421 90.260 -29.1894
65.356621 90.231 -29.1940
65.830215 90.202 -29.1973
66.307251 90.174 -29.2010
66.787743 90.147 -29.2065
67.271713 90.121 -29.2150
67.759193 90.094 -29.2286
68.250206 90.066 -29.2450
68.744774 90.037 -29.2625
69.242928 90.007 -29.2810
69.744690 89.977 -29.2998
70.250084 89.947 -29.3180
70.759148 89.916 -29.3353
71.271896 89.883 -29.3490
71.788361 89.849 -29.3560
72.308571 89.814 -29.3560
72.832550 89.780 -29.3465
73.360321 89.746 -29.3310
73.891922 89.714 -29.3115
74.427376 89.682 -29.2900
74.966705 89.651 -29.2694
75.509949 89.621 -29.2500
76.057121 89.591 -29.2335
76.608261 89.560 -29.2190
77.163399 89.529 -29.2073
77.722557 89.498 -29.1960
78.285767 89.466 -29.1845
78.853058 89.432 -29.1690
79.424461 89.397 -29.1463
80.000000 89.361 -29.1151
80.579712 89.325 -29.0724
81.163628 89.290 -29.0201
81.751770 89.256 -28.9583
82.344177 89.224 -28.8891
82.940880 89.193 -28.8136
83.541901 89.164 -28.7362
84.147285 89.138 -28.6608
84.757050 89.114 -28.5901
85.371231 89.092 -28.5274
85.989868 89.071 -28.4751
86.612984 89.052 -28.4362
87.240616 89.033 -28.4120
87.872803 89.014 -28.4063
88.509560 88.993 -28.4150
89.150940 88.970 -28.4364
89.796967 88.945 -28.4669
90.447670 88.917 -28.5042
91.103088 88.886 -28.5429
91.763260 88.852 -28.5792
92.428215 88.814 -28.6070
93.097992 88.773 -28.6187
93.772614 88.729 -28.6140
94.452133 88.686 -28.5898
95.136566 88.642 -28.5471
95.825966 88.598 -28.4855
96.520363 88.555 -28.4072
97.219788 88.514 -28.3122
97.924286 88.475 -28.2072
98.633881 88.440 -28.0983
99.348625 88.408 -27.9882
100.068542 88.376 -27.8822
100.793686 88.346 -27.7793
101.524078 88.317 -27.6801
102.259766 88.289 -27.5852
103.000778 88.262 -27.4959
103.747162 88.234 -27.4112
104.498962 88.206 -27.3310
105.256203 88.177 -27.2531
106.018929 88.148 -27.1753
106.787186 88.118 -27.0972
107.561012 88.088 -27.0181
108.340446 88.058 -26.9371
109.125526 88.027 -26.8532
109.916290 87.996 -26.7662
110.712791 87.965 -26.6751
111.515060 87.935 -26.5812
112.323143 87.905 -26.4856
113.137085 87.875 -26.3882
113.956924 87.846 -26.2891
114.782700 87.816 -26.1883
115.614464 87.787 -26.0856
116.452255 87.757 -25.9812
117.296112 87.728 -25.8750
118.146095 87.699 -25.7672
119.002228 87.671 -25.6583
119.864563 87.643 -25.5483
120.733154 87.615 -25.4377
121.608040 87.587 -25.3252
122.489258 87.558 -25.2099
123.376869 87.530 -25.0923
124.270905 87.503 -24.9719
125.171425 87.477 -24.8512
126.078468 87.451 -24.7331
126.992081 87.425 -24.6153
127.912323 87.399 -24.4966
128.839233 87.372 -24.3762
129.772842 87.346 -24.2517
130.713242 87.320 -24.1263
131.660431 87.296 -24.0031
132.614502 87.271 -23.8803
133.575485 87.245 -23.7577
134.543427 87.219 -23.6342
135.518387 87.194 -23.5089
136.500412 87.169 -23.3822
137.489548 87.144 -23.2556
138.485855 87.118 -23.1253
139.489380 87.091 -22.9872
140.500168 87.064 -22.8443
141.518295 87.041 -22.6975
142.543793 87.018 -22.5494
143.576721 86.994 -22.4036
144.617142 86.971 -22.2573
145.665100 86.948 -22.1073
146.720642 86.927 -21.9584
147.783844 86.908 -21.8151
148.854752 86.889 -21.6754
149.933411 86.867 -21.5397
151.019897 86.845 -21.4043
152.114243 86.823 -21.2648
153.216522 86.802 -21.1234
154.326797 86.781 -20.9814
155.445114 86.759 -20.8373
156.571533 86.737 -20.6893
157.706116 86.715 -20.5393
158.848923 86.695 -20.3889
160.000000 86.675 -20.2384
161.159424 86.655 -20.0890
162.327255 86.635 -19.9403
163.503540 86.615 -19.7929
164.688354 86.594 -19.6443
165.881760 86.572 -19.4926
167.083801 86.549 -19.3364
168.294571 86.527 -19.1739
169.514099 86.504 -19.0054
170.742462 86.481 -18.8316
171.979736 86.459 -18.6505
173.225967 86.437 -18.4597
174.481232 86.415 -18.2605
175.745605 86.395 -18.0530
177.019119 86.376 -17.8385
178.301880 86.358 -17.6180
179.593933 86.341 -17.3926
180.895340 86.327 -17.1629
182.206177 86.315 -16.9316
183.526520 86.305 -16.7011
184.856430 86.296 -16.4725
186.195984 86.289 -16.2470
187.545227 86.284 -16.0265
188.904266 86.281 -15.8134
190.273132 86.280 -15.6085
191.651932 86.279 -15.4137
193.040726 86.278 -15.2275
194.439575 86.278 -15.0489
195.848572 86.278 -14.8775
197.267761 86.278 -14.7125
198.697250 86.278 -14.5534
200.137085 86.278 -14.3994
201.587372 86.278 -14.2503
203.048157 86.278 -14.1057
204.519531 86.278 -13.9654
206.001556 86.278 -13.8292
207.494324 86.278 -13.6973
208.997925 86.278 -13.5694
210.512405 86.278 -13.4463
212.037857 86.278 -13.3287
213.574371 86.278 -13.2163
215.122025 86.277 -13.1088
216.680893 86.276 -13.0063
218.251053 86.275 -12.9096
219.832581 86.272 -12.8163
221.425583 86.268 -12.7248
223.030121 86.262 -12.6322
224.646286 86.255 -12.5350
226.274170 86.248 -12.4343
227.913849 86.241 -12.3300
229.565399 86.233 -12.2223
231.228928 86.225 -12.1109
232.904510 86.217 -11.9964
234.592224 86.210 -11.8783
236.292191 86.203 -11.7583
238.004456 86.196 -11.6383
239.729126 86.189 -11.5163
241.466309 86.181 -11.3910
243.216080 86.173 -11.2624
244.978516 86.165 -11.1299
246.753738 86.158 -10.9934
248.541809 86.151 -10.8522
250.342850 86.144 -10.7064
252.156937 86.138 -10.5549
253.984161 86.134 -10.4014
255.824646 86.132 -10.2495
257.678467 86.130 -10.0994
259.545685 86.129 -9.9527
261.426483 86.128 -9.8094
263.320862 86.128 -9.6703
265.229004 86.128 -9.5344
267.150970 86.128 -9.4007
269.086853 86.128 -9.2694
271.036774 86.128 -9.1402
273.000824 86.128 -9.0124
274.979095 86.128 -8.8851
276.971710 86.128 -8.7584
278.978760 86.128 -8.6318
281.000336 86.128 -8.5053
283.036591 86.128 -8.3792
285.087585 86.128 -8.2524
287.153442 86.128 -8.1242
289.234283 86.128 -7.9944
291.330200 86.128 -7.8620
293.441284 86.129 -7.7274
295.567688 86.130 -7.5902
297.709503 86.131 -7.4514
299.866821 86.134 -7.3110
302.039795 86.138 -7.1714
304.228485 86.144 -7.0347
306.433044 86.150 -6.9024
308.653595 86.157 -6.7770
310.890228 86.164 -6.6573
313.143066 86.172 -6.5429
315.412231 86.179 -6.4333
317.697845 86.186 -6.3289
320.000000 86.192 -6.2273
322.318848 86.198 -6.1266
324.654510 86.203 -6.0253
327.007080 86.208 -5.9209
329.376709 86.213 -5.8153
331.763519 86.219 -5.7095
334.167603 86.226 -5.6043
336.589142 86.233 -5.5008
339.028198 86.241 -5.3993
341.484924 86.249 -5.3009
343.959473 86.257 -5.2053
346.451935 86.265 -5.1124
348.962463 86.273 -5.0222
351.491211 86.281 -4.9347
354.038239 86.290 -4.8502
356.603760 86.299 -4.7694
359.187866 86.308 -4.6912
361.790680 86.316 -4.6150
364.412354 86.323 -4.5402
367.053040 86.331 -4.4663
369.712860 86.339 -4.3932
372.391968 86.346 -4.3213
375.090454 86.353 -4.2492
377.808533 86.360 -4.1754
380.546265 86.368 -4.1012
383.303864 86.376 -4.0274
386.081451 86.384 -3.9542
388.879150 86.392 -3.8822
391.697144 86.400 -3.8112
394.535522 86.409 -3.7404
397.394501 86.418 -3.6722
400.274170 86.428 -3.6091
403.174744 86.439 -3.5502
406.096313 86.448 -3.4964
409.039062 86.457 -3.4452
412.003113 86.465 -3.3943
414.988647 86.473 -3.3442
417.995850 86.482 -3.2946
421.024811 86.490 -3.2452
424.075714 86.497 -3.1957
427.148743 86.504 -3.1452
430.244049 86.511 -3.0922
433.361786 86.518 -3.0382
436.502106 86.526 -2.9842
439.665161 86.534 -2.9302
442.851166 86.542 -2.8759
446.060242 86.550 -2.8222
449.292572 86.559 -2.7690
452.548340 86.569 -2.7182
455.827698 86.579 -2.6718
459.130798 86.589 -2.6291
462.457855 86.599 -2.5911
465.809021 86.608 -2.5551
469.184448 86.616 -2.5190
472.584381 86.624 -2.4831
476.008911 86.632 -2.4474
479.458252 86.640 -2.4111
482.932617 86.647 -2.3742
486.432159 86.654 -2.3351
489.957031 86.661 -2.2917
493.507477 86.668 -2.2461
497.083618 86.677 -2.1998
500.685699 86.686 -2.1532
504.313873 86.695 -2.1062
507.968323 86.705 -2.0611
511.649292 86.717 -2.0191
515.356934 86.729 -1.9831
519.091370 86.742 -1.9586
522.852966 86.754 -1.9401
526.641724 86.763 -1.9242
530.458008 86.772 -1.9100
534.301941 86.781 -1.8953
538.173706 86.790 -1.8801
542.073547 86.798 -1.8642
546.001648 86.805 -1.8461
549.958191 86.812 -1.8233
553.943420 86.819 -1.7981
557.957520 86.827 -1.7720
562.000671 86.835 -1.7451
566.073181 86.843 -1.7182
570.175171 86.851 -1.6911
574.306885 86.860 -1.6628
578.468567 86.870 -1.6361
582.660400 86.880 -1.6139
586.882568 86.890 -1.5951
591.135376 86.899 -1.5797
595.419006 86.908 -1.5660
599.733643 86.917 -1.5521
604.079590 86.925 -1.5380
608.456970 86.933 -1.5235
612.866089 86.941 -1.5081
617.307190 86.948 -1.4916
621.780457 86.955 -1.4731
626.286133 86.962 -1.4511
630.824463 86.969 -1.4271
635.395691 86.977 -1.4017
640.000000 86.985 -1.3751
644.637695 86.993 -1.3479
649.309021 87.001 -1.3201
654.014160 87.010 -1.2911
658.753418 87.020 -1.2631
663.527039 87.030 -1.2385
668.335205 87.040 -1.2161
673.178284 87.050 -1.1958
678.056396 87.059 -1.1761
682.969849 87.068 -1.1551
687.918945 87.076 -1.1331
692.903870 87.085 -1.1095
697.924927 87.094 -1.0851
702.982422 87.104 -1.0609
708.076477 87.113 -1.0361
713.207520 87.122 -1.0104
718.375732 87.130 -0.9831
723.581360 87.139 -0.9532
728.824707 87.148 -0.9211
734.106079 87.157 -0.8863
739.425720 87.166 -0.8501
744.783936 87.177 -0.8139
750.180908 87.188 -0.7781
755.617065 87.198 -0.7446
761.092529 87.208 -0.7101
766.607727 87.217 -0.6720
772.162903 87.227 -0.6302
777.758301 87.237 -0.5830
783.394287 87.247 -0.5322
789.071045 87.258 -0.4791
794.789001 87.269 -0.4222
800.548340 87.280 -0.3604
806.349487 87.292 -0.2942
812.192627 87.305 -0.2234
818.078125 87.320 -0.1503
824.006226 87.336 -0.0772
829.977295 87.353 -0.0043
835.991699 87.370 0.0677
842.049622 87.389 0.1387
848.151428 87.409 0.2086
854.297485 87.429 0.2777
860.488098 87.449 0.3465
866.723572 87.470 0.4147
