* Measurement data measured by REW V5.20.13
* Source: C:\Users\kurin\Desktop\Targets and Curves\Resolve\Img\Files\SA6 Mk2 gras Bass On_SPL.txt
* Format: Comma/Tab/Space delimited data
* Dated: Aug 14, 2023 6:57:44 PM
* REW Settings:
*  C-weighting compensation: Off
*  Target level: 75.0 dB
* Note: ; Measurement imported from C:\Users\kurin\Desktop\Targets and Curves\Resolve\Img\Files\SA6 Mk2 gras Bass On_SPL.txt Format: Comma/Tab/Space delimited data 623 values loaded, 5 Hz to 39,792 Hz log spaced 
* Measurement: SA6 Mk2 gras Bass On_SPL
* Smoothing: 1/48 octave
* Frequency Step: 1/96 octave
* Start Frequency: 5.000 Hz
*
* Freq(Hz) SPL(dB) Phase(degrees)
5.000000 87.706 4.0380
5.036232 87.707 4.0312
5.072727 87.709 4.0240
5.109486 87.711 4.0161
5.146511 87.714 4.0070
5.183805 87.717 3.9961
5.221369 87.721 3.9840
5.259205 87.724 3.9713
5.297316 87.728 3.9580
5.335702 87.732 3.9442
5.374367 87.737 3.9300
5.413311 87.741 3.9156
5.452538 87.745 3.9010
5.492050 87.749 3.8866
5.531847 87.753 3.8720
5.571934 87.757 3.8571
5.612310 87.761 3.8420
5.652979 87.765 3.8271
5.693943 87.769 3.8120
5.735204 87.773 3.7965
5.776763 87.778 3.7810
5.818624 87.782 3.7661
5.860788 87.786 3.7510
5.903258 87.790 3.7351
5.946035 87.794 3.7190
5.989123 87.798 3.7030
6.032523 87.802 3.6870
6.076237 87.806 3.6711
6.120268 87.810 3.6550
6.164618 87.814 3.6386
6.209289 87.819 3.6220
6.254284 87.823 3.6056
6.299605 87.827 3.5890
6.345255 87.831 3.5721
6.391235 87.835 3.5550
6.437549 87.839 3.5381
6.484198 87.843 3.5210
6.531185 87.847 3.5036
6.578513 87.852 3.4860
6.626183 87.856 3.4686
6.674199 87.860 3.4510
6.722563 87.864 3.4331
6.771278 87.868 3.4150
6.820345 87.872 3.3971
6.869768 87.876 3.3790
6.919549 87.880 3.3606
6.969691 87.884 3.3420
7.020196 87.888 3.3236
7.071068 87.893 3.3050
7.122308 87.897 3.2861
7.173919 87.901 3.2670
7.225904 87.905 3.2476
7.278266 87.909 3.2280
7.331007 87.913 3.2085
7.384131 87.917 3.1890
7.437639 87.921 3.1696
7.491535 87.925 3.1500
7.545822 87.929 3.1296
7.600502 87.934 3.1090
7.655579 87.938 3.0891
7.711054 87.942 3.0690
7.766932 87.946 3.0481
7.823214 87.950 3.0270
7.879904 87.954 3.0061
7.937005 87.958 2.9850
7.994520 87.962 2.9636
8.052452 87.966 2.9420
8.110803 87.970 2.9206
8.169578 87.975 2.8990
8.228777 87.979 2.8771
8.288406 87.983 2.8550
8.348468 87.987 2.8326
8.408964 87.991 2.8100
8.469899 87.995 2.7876
8.531276 87.999 2.7650
8.593097 88.003 2.7421
8.655366 88.007 2.7190
8.718086 88.011 2.6956
8.781260 88.016 2.6720
8.844893 88.020 2.6486
8.908987 88.024 2.6250
8.973545 88.028 2.6011
9.038571 88.032 2.5770
9.104069 88.036 2.5526
9.170040 88.040 2.5280
9.236490 88.044 2.5031
9.303422 88.048 2.4780
9.370838 88.052 2.4531
9.438744 88.057 2.4280
9.507140 88.061 2.4021
9.576033 88.065 2.3760
9.645425 88.069 2.3500
9.715320 88.073 2.3240
9.785721 88.077 2.2981
9.856632 88.081 2.2720
9.928058 88.085 2.2451
10.000000 88.089 2.2180
10.072464 88.093 2.1911
10.145453 88.098 2.1640
10.218971 88.102 2.1367
10.293022 88.106 2.1090
10.367610 88.110 2.0806
10.442738 88.114 2.0520
10.518411 88.118 2.0235
10.594631 88.122 1.9950
10.671404 88.126 1.9666
10.748734 88.130 1.9380
10.826623 88.134 1.9087
10.905077 88.139 1.8790
10.984100 88.143 1.8491
11.063695 88.147 1.8190
11.143867 88.151 1.7886
11.224621 88.155 1.7580
11.305959 88.159 1.7276
11.387886 88.163 1.6970
11.470407 88.167 1.6656
11.553527 88.171 1.6340
11.637249 88.175 1.6026
11.721577 88.180 1.5710
11.806517 88.184 1.5387
11.892071 88.188 1.5060
11.978246 88.192 1.4736
12.065045 88.196 1.4410
12.152473 88.200 1.4077
12.240536 88.204 1.3740
12.329235 88.208 1.3401
12.418578 88.213 1.3060
12.508568 88.217 1.2716
12.599211 88.221 1.2370
12.690510 88.225 1.2022
12.782471 88.229 1.1670
12.875097 88.233 1.1317
12.968395 88.237 1.0960
13.062370 88.241 1.0601
13.157025 88.245 1.0240
13.252366 88.249 0.9877
13.348398 88.254 0.9510
13.445127 88.258 0.9137
13.542556 88.262 0.8760
13.640691 88.266 0.8382
13.739536 88.270 0.8000
13.839099 88.274 0.7616
13.939383 88.278 0.7230
14.040393 88.282 0.6842
14.142136 88.286 0.6450
14.244616 88.290 0.6052
14.347837 88.295 0.5650
14.451808 88.299 0.5247
14.556532 88.303 0.4840
14.662014 88.307 0.4427
14.768262 88.311 0.4010
14.875278 88.315 0.3592
14.983070 88.319 0.3170
15.091644 88.323 0.2747
15.201005 88.327 0.2320
15.311157 88.331 0.1888
15.422109 88.336 0.1450
15.533863 88.340 0.1007
15.646428 88.344 0.0560
15.759809 88.348 0.0112
15.874010 88.352 -0.0340
15.989040 88.356 -0.0798
16.104904 88.360 -0.1260
16.221605 88.364 -0.1722
16.339155 88.368 -0.2189
16.457554 88.372 -0.2667
16.576813 88.377 -0.3150
16.696936 88.381 -0.3633
16.817928 88.385 -0.4120
16.939798 88.389 -0.4612
17.062551 88.393 -0.5109
17.186193 88.397 -0.5612
17.310732 88.401 -0.6120
17.436172 88.405 -0.6632
17.562521 88.409 -0.7150
17.689787 88.413 -0.7671
17.817974 88.418 -0.8199
17.947090 88.422 -0.8736
18.077143 88.426 -0.9280
18.208138 88.430 -0.9826
18.340080 88.434 -1.0379
18.472980 88.438 -1.0941
18.606844 88.442 -1.1510
18.741676 88.446 -1.2085
18.877487 88.450 -1.2669
19.014280 88.454 -1.3269
19.152065 88.459 -1.3879
19.290850 88.463 -1.4498
19.430639 88.467 -1.5130
19.571442 88.471 -1.5778
19.713264 88.474 -1.6439
19.856115 88.478 -1.7111
20.000000 88.481 -1.7789
20.144928 88.484 -1.8471
20.290907 88.486 -1.9149
20.437943 88.488 -1.9823
20.586044 88.489 -2.0480
20.735220 88.490 -2.1109
20.885475 88.491 -2.1709
21.036821 88.492 -2.2270
21.189262 88.493 -2.2799
21.342808 88.495 -2.3297
21.497467 88.498 -2.3779
21.653246 88.501 -2.4258
21.810154 88.505 -2.4749
21.968201 88.510 -2.5270
22.127390 88.516 -2.5829
22.287735 88.522 -2.6446
22.449242 88.528 -2.7109
22.611917 88.534 -2.7822
22.775772 88.539 -2.8569
22.940815 88.543 -2.9340
23.107054 88.547 -3.0119
23.274498 88.550 -3.0888
23.443153 88.553 -3.1639
23.613033 88.555 -3.2350
23.784142 88.558 -3.3039
23.956491 88.562 -3.3709
24.130091 88.566 -3.4389
24.304947 88.572 -3.5109
24.481071 88.578 -3.5869
24.658470 88.584 -3.6678
24.837156 88.590 -3.7539
25.017136 88.596 -3.8462
25.198421 88.602 -3.9439
25.381020 88.606 -4.0474
25.564941 88.610 -4.1539
25.750195 88.612 -4.2611
25.936790 88.614 -4.3679
26.124741 88.615 -4.4724
26.314051 88.616 -4.5749
26.504732 88.616 -4.6749
26.696796 88.616 -4.7729
26.890253 88.616 -4.8690
27.085112 88.616 -4.9639
27.281382 88.616 -5.0583
27.479073 88.616 -5.1519
27.678198 88.616 -5.2446
27.878765 88.616 -5.3369
28.080786 88.616 -5.4294
28.284271 88.616 -5.5219
28.489231 88.616 -5.6143
28.695675 88.616 -5.7069
28.903616 88.616 -5.7997
29.113064 88.616 -5.8929
29.324028 88.616 -5.9863
29.536524 88.616 -6.0799
29.750557 88.616 -6.1738
29.966141 88.616 -6.2679
30.183289 88.616 -6.3621
30.402010 88.616 -6.4569
30.622314 88.616 -6.5525
30.844217 88.616 -6.6489
31.067726 88.616 -6.7460
31.292856 88.616 -6.8439
31.519617 88.616 -6.9425
31.748020 88.616 -7.0419
31.978081 88.616 -7.1419
32.209808 88.616 -7.2429
32.443211 88.616 -7.3449
32.678310 88.616 -7.4479
32.915108 88.616 -7.5517
33.153625 88.616 -7.6569
33.393871 88.616 -7.7635
33.635857 88.616 -7.8718
33.879597 88.616 -7.9818
34.125103 88.616 -8.0938
34.372387 88.616 -8.2080
34.621464 88.616 -8.3248
34.872345 88.616 -8.4448
35.125042 88.615 -8.5678
35.379574 88.614 -8.6939
35.635948 88.613 -8.8228
35.894180 88.611 -8.9553
36.154285 88.609 -9.0888
36.416275 88.605 -9.2213
36.680161 88.600 -9.3518
36.945961 88.594 -9.4786
37.213688 88.588 -9.6018
37.483353 88.582 -9.7212
37.754974 88.576 -9.8368
38.028561 88.571 -9.9480
38.304131 88.566 -10.0569
38.581699 88.562 -10.1645
38.861279 88.559 -10.2738
39.142883 88.557 -10.3876
39.426529 88.555 -10.5068
39.712231 88.554 -10.6336
40.000000 88.552 -10.7678
40.289856 88.550 -10.9112
40.581814 88.547 -11.0608
40.875885 88.543 -11.2158
41.172089 88.536 -11.3718
41.470440 88.526 -11.5249
41.770950 88.515 -11.6728
42.073643 88.504 -11.8109
42.378525 88.492 -11.9408
42.685616 88.480 -12.0626
42.994934 88.468 -12.1768
43.306492 88.456 -12.2828
43.620308 88.446 -12.3848
43.936401 88.438 -12.4861
44.254780 88.432 -12.5888
44.575470 88.426 -12.6969
44.898483 88.420 -12.8088
45.223835 88.414 -12.9245
45.551544 88.407 -13.0438
45.881630 88.401 -13.1667
46.214108 88.395 -13.2928
46.548996 88.389 -13.4217
46.886307 88.382 -13.5538
47.226067 88.375 -13.6890
47.568283 88.368 -13.8278
47.912983 88.361 -13.9712
48.260181 88.353 -14.1178
48.609894 88.344 -14.2668
48.962143 88.333 -14.4168
49.316940 88.321 -14.5661
49.674313 88.309 -14.7138
50.034271 88.296 -14.8582
50.396843 88.282 -14.9988
50.762039 88.267 -15.1342
51.129883 88.252 -15.2648
51.500389 88.237 -15.3895
51.873581 88.223 -15.5108
52.249481 88.209 -15.6312
52.628101 88.195 -15.7498
53.009464 88.181 -15.8657
53.393593 88.168 -15.9808
53.780506 88.155 -16.0961
54.170223 88.143 -16.2128
54.562763 88.131 -16.3329
54.958145 88.118 -16.4548
55.356396 88.105 -16.5771
55.757530 88.092 -16.7008
56.161572 88.079 -16.8279
56.568542 88.065 -16.9548
56.978462 88.049 -17.0791
57.391350 88.033 -17.1998
57.807232 88.017 -17.3140
58.226128 88.002 -17.4248
58.648056 87.987 -17.5336
59.073048 87.973 -17.6418
59.501114 87.960 -17.7508
59.932281 87.947 -17.8618
60.366577 87.935 -17.9767
60.804020 87.922 -18.0948
61.244629 87.909 -18.2167
61.688435 87.895 -18.3408
62.135452 87.882 -18.4657
62.585712 87.868 -18.5918
63.039234 87.854 -18.7196
63.496040 87.839 -18.8478
63.956161 87.824 -18.9748
64.419617 87.808 -19.1018
64.886421 87.793 -19.2286
65.356621 87.779 -19.3578
65.830215 87.764 -19.4930
66.307251 87.749 -19.6307
66.787743 87.732 -19.7689
67.271713 87.714 -19.9067
67.759193 87.696 -20.0423
68.250206 87.678 -20.1768
68.744774 87.659 -20.3116
69.242928 87.639 -20.4438
69.744690 87.618 -20.5696
70.250084 87.597 -20.6918
70.759148 87.578 -20.8108
71.271896 87.559 -20.9288
71.788361 87.540 -21.0485
72.308571 87.520 -21.1688
72.832550 87.500 -21.2888
73.360321 87.481 -21.4098
73.891922 87.462 -21.5331
74.427376 87.443 -21.6578
74.966705 87.422 -21.7833
75.509949 87.401 -21.9098
76.057121 87.381 -22.0373
76.608261 87.360 -22.1647
77.163399 87.337 -22.2921
77.722557 87.314 -22.4167
78.285767 87.291 -22.5353
78.853058 87.267 -22.6508
79.424461 87.244 -22.7646
80.000000 87.221 -22.8778
80.579712 87.198 -22.9923
81.163628 87.175 -23.1068
81.751770 87.152 -23.2198
82.344177 87.128 -23.3328
82.940880 87.105 -23.4463
83.541901 87.081 -23.5608
84.147285 87.057 -23.6777
84.757050 87.033 -23.7948
85.371231 87.007 -23.9110
85.989868 86.980 -24.0238
86.612984 86.952 -24.1300
87.240616 86.923 -24.2308
87.872803 86.896 -24.3258
88.509560 86.869 -24.4158
89.150940 86.841 -24.5014
89.796967 86.814 -24.5838
90.447670 86.788 -24.6642
91.103088 86.763 -24.7438
91.763260 86.738 -24.8239
92.428215 86.714 -24.9058
93.097992 86.691 -24.9918
93.772614 86.668 -25.0808
94.452133 86.644 -25.1730
95.136566 86.619 -25.2678
95.825966 86.595 -25.3650
96.520363 86.570 -25.4638
97.219788 86.543 -25.5637
97.924286 86.516 -25.6628
98.633881 86.489 -25.7582
99.348625 86.461 -25.8518
100.068542 86.434 -25.9453
100.793686 86.406 -26.0368
101.524078 86.377 -26.1247
102.259766 86.347 -26.2098
103.000778 86.318 -26.2915
103.747162 86.290 -26.3718
104.498962 86.262 -26.4531
105.256203 86.234 -26.5338
106.018929 86.205 -26.6130
106.787186 86.176 -26.6918
107.561012 86.148 -26.7720
108.340446 86.119 -26.8519
109.125526 86.089 -26.9306
109.916290 86.058 -27.0079
110.712791 86.028 -27.0830
111.515060 85.998 -27.1558
112.323143 85.967 -27.2257
113.137085 85.936 -27.2929
113.956924 85.905 -27.3569
114.782700 85.875 -27.4198
115.614464 85.846 -27.4836
116.452255 85.816 -27.5479
117.296112 85.786 -27.6129
118.146095 85.756 -27.6789
119.002228 85.726 -27.7461
119.864563 85.695 -27.8138
120.733154 85.663 -27.8813
121.608040 85.631 -27.9479
122.489258 85.599 -28.0130
123.376869 85.566 -28.0758
124.270905 85.532 -28.1359
125.171425 85.497 -28.1909
126.078468 85.462 -28.2373
126.992081 85.427 -28.2789
127.912323 85.394 -28.3184
128.839233 85.362 -28.3559
129.772842 85.328 -28.3932
130.713242 85.294 -28.4289
131.660431 85.261 -28.4614
132.614502 85.228 -28.4929
133.575485 85.196 -28.5262
134.543427 85.164 -28.5589
135.518387 85.130 -28.5899
136.500412 85.096 -28.6189
137.489548 85.063 -28.6445
138.485855 85.031 -28.6689
139.489380 84.998 -28.6948
140.500168 84.965 -28.7199
141.518295 84.932 -28.7423
142.543793 84.899 -28.7639
143.576721 84.868 -28.7863
144.617142 84.836 -28.8099
145.665100 84.803 -28.8371
146.720642 84.769 -28.8639
147.783844 84.735 -28.8871
148.854752 84.701 -28.9079
149.933411 84.667 -28.9260
151.019897 84.633 -28.9430
152.114243 84.599 -28.9606
153.216522 84.565 -28.9780
154.326797 84.531 -28.9949
155.445114 84.496 -29.0110
156.571533 84.461 -29.0253
157.706116 84.425 -29.0390
158.848923 84.390 -29.0538
160.000000 84.354 -29.0660
161.159424 84.316 -29.0731
162.327255 84.276 -29.0730
163.503540 84.236 -29.0618
164.688354 84.197 -29.0430
165.881760 84.160 -29.0191
167.083801 84.124 -28.9901
168.294571 84.086 -28.9567
169.514099 84.049 -28.9191
170.742462 84.015 -28.8751
171.979736 83.982 -28.8321
173.225967 83.951 -28.7976
174.481232 83.921 -28.7691
175.745605 83.889 -28.7482
177.019119 83.856 -28.7300
178.301880 83.822 -28.7097
179.593933 83.788 -28.6891
180.895340 83.754 -28.6690
182.206177 83.720 -28.6481
183.526520 83.685 -28.6257
184.856430 83.649 -28.6001
186.195984 83.613 -28.5680
187.545227 83.576 -28.5321
188.904266 83.541 -28.4936
190.273132 83.505 -28.4531
191.651932 83.469 -28.4122
193.040726 83.433 -28.3691
194.439575 83.397 -28.3226
195.848572 83.360 -28.2731
197.267761 83.324 -28.2198
198.697250 83.289 -28.1651
200.137085 83.254 -28.1127
201.587372 83.219 -28.0581
203.048157 83.181 -27.9980
204.519531 83.143 -27.9332
206.001556 83.107 -27.8628
207.494324 83.072 -27.7892
208.997925 83.036 -27.7161
210.512405 83.000 -27.6392
212.037857 82.963 -27.5540
213.574371 82.926 -27.4642
215.122025 82.893 -27.3714
216.680893 82.860 -27.2782
218.251053 82.827 -27.1893
219.832581 82.794 -27.1003
221.425583 82.760 -27.0073
223.030121 82.727 -26.9132
224.646286 82.696 -26.8199
226.274170 82.665 -26.7272
227.913849 82.632 -26.6375
229.565399 82.598 -26.5462
231.228928 82.564 -26.4488
232.904510 82.531 -26.3483
234.592224 82.499 -26.2460
236.292191 82.468 -26.1423
238.004456 82.436 -26.0385
239.729126 82.403 -25.9333
241.466309 82.372 -25.8252
243.216080 82.341 -25.7163
244.978516 82.310 -25.6086
246.753738 82.279 -25.5003
248.541809 82.247 -25.3906
250.342850 82.215 -25.2793
252.156937 82.185 -25.1661
253.984161 82.154 -25.0513
255.824646 82.122 -24.9354
257.678467 82.090 -24.8173
259.545685 82.059 -24.6955
261.426483 82.028 -24.5713
263.320862 81.997 -24.4461
265.229004 81.966 -24.3184
267.150970 81.935 -24.1869
269.086853 81.903 -24.0524
271.036774 81.873 -23.9151
273.000824 81.842 -23.7744
274.979095 81.811 -23.6297
276.971710 81.780 -23.4815
278.978760 81.751 -23.3295
281.000336 81.723 -23.1754
283.036591 81.694 -23.0211
285.087585 81.666 -22.8655
287.153442 81.638 -22.7077
289.234283 81.611 -22.5494
291.330200 81.585 -22.3925
293.441284 81.559 -22.2354
295.567688 81.533 -22.0779
297.709503 81.506 -21.9184
299.866821 81.479 -21.7545
302.039795 81.453 -21.5885
304.228485 81.428 -21.4222
306.433044 81.404 -21.2555
308.653595 81.379 -21.0894
310.890228 81.354 -20.9225
313.143066 81.330 -20.7530
315.412231 81.306 -20.5825
317.697845 81.283 -20.4125
320.000000 81.259 -20.2415
322.318848 81.235 -20.0690
324.654510 81.210 -19.8936
327.007080 81.186 -19.7126
329.376709 81.163 -19.5286
331.763519 81.141 -19.3432
334.167603 81.120 -19.1566
336.589142 81.098 -18.9692
339.028198 81.077 -18.7815
341.484924 81.057 -18.5945
343.959473 81.037 -18.4075
346.451935 81.017 -18.2203
348.962463 80.997 -18.0325
351.491211 80.978 -17.8435
354.038239 80.959 -17.6536
356.603760 80.940 -17.4636
359.187866 80.920 -17.2706
361.790680 80.899 -17.0717
364.412354 80.879 -16.8676
367.053040 80.861 -16.6571
369.712860 80.844 -16.4437
372.391968 80.828 -16.2312
375.090454 80.812 -16.0176
377.808533 80.797 -15.8016
380.546265 80.783 -15.5846
383.303864 80.770 -15.3665
386.081451 80.759 -15.1506
388.879150 80.750 -14.9402
391.697144 80.741 -14.7356
394.535522 80.732 -14.5388
397.394501 80.723 -14.3475
400.274170 80.714 -14.1611
403.174744 80.704 -13.9776
406.096313 80.694 -13.7949
409.039062 80.684 -13.6126
412.003113 80.673 -13.4299
414.988647 80.661 -13.2446
417.995850 80.649 -13.0537
421.024811 80.638 -12.8586
424.075714 80.627 -12.6586
427.148743 80.617 -12.4566
430.244049 80.609 -12.2550
433.361786 80.602 -12.0556
436.502106 80.596 -11.8616
439.665161 80.590 -11.6726
442.851166 80.584 -11.4902
446.060242 80.577 -11.3116
449.292572 80.569 -11.1349
452.548340 80.561 -10.9576
455.827698 80.551 -10.7771
459.130798 80.541 -10.5906
462.457855 80.530 -10.3940
465.809021 80.519 -10.1887
469.184448 80.509 -9.9729
472.584381 80.501 -9.7517
476.008911 80.496 -9.5284
479.458252 80.493 -9.3067
482.932617 80.492 -9.0915
486.432159 80.491 -8.8827
489.957031 80.491 -8.6819
493.507477 80.491 -8.4876
497.083618 80.490 -8.2990
500.685699 80.489 -8.1146
504.313873 80.488 -7.9335
507.968323 80.486 -7.7526
511.649292 80.482 -7.5691
515.356934 80.478 -7.3816
519.091370 80.474 -7.1868
522.852966 80.471 -6.9877
526.641724 80.469 -6.7856
530.458008 80.468 -6.5817
534.301941 80.468 -6.3772
538.173706 80.468 -6.1727
542.073547 80.469 -5.9684
546.001648 80.471 -5.7657
549.958191 80.474 -5.5654
553.943420 80.478 -5.3696
557.957520 80.483 -5.1814
562.000671 80.488 -4.9986
566.073181 80.492 -4.8211
570.175171 80.495 -4.6466
574.306885 80.497 -4.4731
578.468567 80.499 -4.2986
582.660400 80.499 -4.1204
586.882568 80.499 -3.9377
591.135376 80.499 -3.7481
595.419006 80.500 -3.5527
599.733643 80.501 -3.3513
604.079590 80.502 -3.1447
608.456970 80.505 -2.9332
612.866089 80.509 -2.7187
617.307190 80.514 -2.5030
621.780457 80.521 -2.2877
626.286133 80.529 -2.0750
630.824463 80.538 -1.8647
635.395691 80.548 -1.6571
640.000000 80.558 -1.4527
644.637695 80.569 -1.2522
649.309021 80.581 -1.0557
654.014160 80.593 -0.8638
658.753418 80.605 -0.6756
663.527039 80.617 -0.4911
668.335205 80.628 -0.3076
673.178284 80.638 -0.1224
678.056396 80.649 0.0644
682.969849 80.661 0.2543
687.918945 80.673 0.4453
692.903870 80.687 0.6359
697.924927 80.701 0.8263
702.982422 80.715 1.0168
708.076477 80.729 1.2063
713.207520 80.745 1.3949
718.375732 80.762 1.5803
723.581360 80.779 1.7586
728.824707 80.797 1.9344
734.106079 80.813 2.1117
739.425720 80.829 2.2894
744.783936 80.847 2.4682
750.180908 80.866 2.6464
755.617065 80.885 2.8216
761.092529 80.904 2.9964
766.607727 80.923 3.1738
772.162903 80.943 3.3504
777.758301 80.966 3.5233
783.394287 80.989 3.6934
789.071045 81.011 3.8599
794.789001 81.033 4.0244
800.548340 81.057 4.1899
806.349487 81.082 4.3524
812.192627 81.108 4.5081
818.078125 81.134 4.6595
824.006226 81.159 4.8077
829.977295 81.184 4.9535
835.991699 81.210 5.0986
842.049622 81.237 5.2415
848.151428 81.264 5.3804
854.297485 81.292 5.5175
860.488098 81.319 5.6546
866.723572 81.347 5.7905
873.004211 81.376 5.9251
879.330322 81.405 6.0575
885.702332 81.435 6.1869
892.120483 81.466 6.3136
898.585144 81.497 6.4376
905.096680 81.529 6.5586
911.655396 81.561 6.6759
918.261597 81.594 6.7906
924.915710 81.627 6.9038
931.618042 81.662 7.0136
938.368896 81.697 7.1183
945.168762 81.734 7.2176
952.017822 81.771 7.3110
958.916504 81.809 7.3987
