* Measurement data measured by REW V5.20.13
* Source: C:\Users\kurin\Desktop\Targets and Curves\Resolve\Img\Files\Empire_Ears_Odyssey_SPL.txt
* Format: Comma/Tab/Space delimited data
* Dated: Aug 14, 2023 3:28:40 PM
* REW Settings:
*  C-weighting compensation: Off
*  Target level: 75.0 dB
* Note: ; Measurement imported from C:\Users\kurin\Desktop\Targets and Curves\Resolve\Img\Files\Empire_Ears_Odyssey_SPL.txt Format: Comma/Tab/Space delimited data 623 values loaded, 5 Hz to 39,792 Hz log spaced 
* Measurement: Empire_Ears_Odyssey_SPL
* Smoothing: 1/48 octave
* Frequency Step: 1/96 octave
* Start Frequency: 5.000 Hz
*
* Freq(Hz) SPL(dB) Phase(degrees)
5.000000 98.273 -6.7960
5.036232 98.271 -6.8018
5.072727 98.269 -6.8080
5.109486 98.267 -6.8149
5.146511 98.265 -6.8230
5.183805 98.262 -6.8335
5.221369 98.259 -6.8450
5.259205 98.256 -6.8562
5.297316 98.253 -6.8680
5.335702 98.250 -6.8812
5.374367 98.246 -6.8950
5.413311 98.243 -6.9089
5.452538 98.239 -6.9230
5.492050 98.236 -6.9370
5.531847 98.232 -6.9510
5.571934 98.229 -6.9649
5.612310 98.225 -6.9790
5.652979 98.222 -6.9934
5.693943 98.218 -7.0080
5.735204 98.215 -7.0224
5.776763 98.211 -7.0370
5.818624 98.208 -7.0519
5.860788 98.204 -7.0670
5.903258 98.201 -7.0820
5.946035 98.197 -7.0970
5.989123 98.194 -7.1119
6.032523 98.190 -7.1270
6.076237 98.187 -7.1424
6.120268 98.183 -7.1580
6.164618 98.180 -7.1739
6.209289 98.176 -7.1900
6.254284 98.173 -7.2060
6.299605 98.169 -7.2220
6.345255 98.166 -7.2379
6.391235 98.162 -7.2540
6.437549 98.158 -7.2704
6.484198 98.155 -7.2870
6.531185 98.152 -7.3034
6.578513 98.149 -7.3200
6.626183 98.146 -7.3369
6.674199 98.142 -7.3540
6.722563 98.139 -7.3715
6.771278 98.135 -7.3890
6.820345 98.132 -7.4059
6.869768 98.128 -7.4230
6.919549 98.125 -7.4409
6.969691 98.121 -7.4590
7.020196 98.118 -7.4770
7.071068 98.114 -7.4950
7.122308 98.111 -7.5129
7.173919 98.107 -7.5310
7.225904 98.104 -7.5494
7.278266 98.100 -7.5680
7.331007 98.097 -7.5869
7.384131 98.093 -7.6060
7.437639 98.090 -7.6249
7.491535 98.086 -7.6440
7.545822 98.083 -7.6634
7.600502 98.079 -7.6830
7.655579 98.076 -7.7024
7.711054 98.072 -7.7220
7.766932 98.069 -7.7419
7.823214 98.065 -7.7620
7.879904 98.062 -7.7824
7.937005 98.058 -7.8030
7.994520 98.055 -7.8234
8.052452 98.051 -7.8440
8.110803 98.048 -7.8649
8.169578 98.044 -7.8860
8.228777 98.041 -7.9069
8.288406 98.037 -7.9280
8.348468 98.034 -7.9494
8.408964 98.030 -7.9710
8.469899 98.027 -7.9929
8.531276 98.023 -8.0150
8.593097 98.020 -8.0369
8.655366 98.016 -8.0590
8.718086 98.013 -8.0814
8.781260 98.009 -8.1040
8.844893 98.006 -8.1269
8.908987 98.002 -8.1500
8.973545 97.999 -8.1734
9.038571 97.995 -8.1970
9.104069 97.992 -8.2204
9.170040 97.988 -8.2440
9.236490 97.985 -8.2679
9.303422 97.981 -8.2920
9.370838 97.978 -8.3159
9.438744 97.974 -8.3400
9.507140 97.971 -8.3643
9.576033 97.967 -8.3890
9.645425 97.964 -8.4144
9.715320 97.960 -8.4400
9.785721 97.957 -8.4649
9.856632 97.953 -8.4900
9.928058 97.950 -8.5158
10.000000 97.946 -8.5420
10.072464 97.943 -8.5684
10.145453 97.939 -8.5950
10.218971 97.936 -8.6214
10.293022 97.932 -8.6480
10.367610 97.929 -8.6749
10.442738 97.925 -8.7020
10.518411 97.922 -8.7294
10.594631 97.918 -8.7570
10.671404 97.915 -8.7844
10.748734 97.911 -8.8120
10.826623 97.908 -8.8403
10.905077 97.904 -8.8690
10.984100 97.901 -8.8979
11.063695 97.897 -8.9270
11.143867 97.894 -8.9559
11.224621 97.890 -8.9850
11.305959 97.886 -9.0143
11.387886 97.883 -9.0440
11.470407 97.880 -9.0744
11.553527 97.877 -9.1050
11.637249 97.874 -9.1354
11.721577 97.870 -9.1660
11.806517 97.867 -9.1968
11.892071 97.863 -9.2280
11.978246 97.860 -9.2594
12.065045 97.856 -9.2910
12.152473 97.853 -9.3229
12.240536 97.849 -9.3550
12.329235 97.846 -9.3874
12.418578 97.842 -9.4200
12.508568 97.839 -9.4528
12.599211 97.835 -9.4860
12.690510 97.832 -9.5198
12.782471 97.828 -9.5540
12.875097 97.825 -9.5879
12.968395 97.821 -9.6220
13.062370 97.818 -9.6563
13.157025 97.814 -9.6910
13.252366 97.811 -9.7264
13.348398 97.807 -9.7620
13.445127 97.804 -9.7973
13.542556 97.800 -9.8330
13.640691 97.797 -9.8693
13.739536 97.793 -9.9060
13.839099 97.790 -9.9429
13.939383 97.786 -9.9800
14.040393 97.783 -10.0174
14.142136 97.779 -10.0550
14.244616 97.776 -10.0928
14.347837 97.772 -10.1310
14.451808 97.769 -10.1698
14.556532 97.765 -10.2090
14.662014 97.762 -10.2483
14.768262 97.758 -10.2880
14.875278 97.755 -10.3278
14.983070 97.751 -10.3680
15.091644 97.748 -10.4088
15.201005 97.744 -10.4500
15.311157 97.741 -10.4913
15.422109 97.737 -10.5330
15.533863 97.734 -10.5748
15.646428 97.730 -10.6170
15.759809 97.727 -10.6598
15.874010 97.723 -10.7030
15.989040 97.720 -10.7463
16.104904 97.716 -10.7900
16.221605 97.713 -10.8338
16.339155 97.709 -10.8779
16.457554 97.706 -10.9227
16.576813 97.702 -10.9680
16.696936 97.699 -11.0138
16.817928 97.695 -11.0600
16.939798 97.692 -11.1058
17.062551 97.688 -11.1519
17.186193 97.685 -11.1993
17.310732 97.681 -11.2470
17.436172 97.678 -11.2943
17.562521 97.674 -11.3420
17.689787 97.671 -11.3908
17.817974 97.667 -11.4399
17.947090 97.664 -11.4888
18.077143 97.660 -11.5380
18.208138 97.657 -11.5878
18.340080 97.653 -11.6379
18.472980 97.650 -11.6884
18.606844 97.646 -11.7390
18.741676 97.643 -11.7894
18.877487 97.639 -11.8399
19.014280 97.635 -11.8909
19.152065 97.632 -11.9419
19.290850 97.629 -11.9926
19.430639 97.626 -12.0430
19.571442 97.622 -12.0930
19.713264 97.619 -12.1429
19.856115 97.616 -12.1928
20.000000 97.614 -12.2430
20.144928 97.612 -12.2935
20.290907 97.610 -12.3450
20.437943 97.608 -12.3980
20.586044 97.607 -12.4530
20.735220 97.606 -12.5101
20.885475 97.605 -12.5699
21.036821 97.605 -12.6327
21.189262 97.605 -12.6989
21.342808 97.605 -12.7693
21.497467 97.605 -12.8439
21.653246 97.605 -12.9230
21.810154 97.605 -13.0069
21.968201 97.604 -13.0960
22.127390 97.603 -13.1899
22.287735 97.601 -13.2888
22.449242 97.599 -13.3909
22.611917 97.595 -13.4953
22.775772 97.590 -13.5989
22.940815 97.583 -13.6981
23.107054 97.575 -13.7929
23.274498 97.568 -13.8821
23.443153 97.560 -13.9659
23.613033 97.552 -14.0437
23.784142 97.544 -14.1169
23.956491 97.538 -14.1853
24.130091 97.533 -14.2529
24.304947 97.530 -14.3232
24.481071 97.527 -14.3979
24.658470 97.525 -14.4799
24.837156 97.523 -14.5689
25.017136 97.521 -14.6660
25.198421 97.518 -14.7689
25.381020 97.513 -14.8770
25.564941 97.507 -14.9859
25.750195 97.500 -15.0905
25.936790 97.492 -15.1919
26.124741 97.484 -15.2893
26.314051 97.476 -15.3839
26.504732 97.468 -15.4763
26.696796 97.461 -15.5669
26.890253 97.454 -15.6551
27.085112 97.448 -15.7449
27.281382 97.444 -15.8401
27.479073 97.439 -15.9399
27.678198 97.433 -16.0459
27.878765 97.426 -16.1548
28.080786 97.418 -16.2642
28.284271 97.410 -16.3739
28.489231 97.402 -16.4832
28.695675 97.393 -16.5919
28.903616 97.384 -16.6995
29.113064 97.374 -16.8049
29.324028 97.363 -16.9064
29.536524 97.352 -17.0049
29.750557 97.342 -17.0996
29.966141 97.333 -17.1929
30.183289 97.324 -17.2870
30.402010 97.316 -17.3819
30.622314 97.307 -17.4780
30.844217 97.298 -17.5759
31.067726 97.290 -17.6756
31.292856 97.283 -17.7788
31.519617 97.276 -17.8880
31.748020 97.268 -18.0009
31.978081 97.259 -18.1159
32.209808 97.249 -18.2328
32.443211 97.239 -18.3519
32.678310 97.229 -18.4708
32.915108 97.216 -18.5883
33.153625 97.203 -18.7019
33.393871 97.190 -18.8071
33.635857 97.177 -18.9088
33.879597 97.166 -19.0100
34.125103 97.155 -19.1119
34.372387 97.144 -19.2173
34.621464 97.133 -19.3248
34.872345 97.122 -19.4336
35.125042 97.111 -19.5439
35.379574 97.100 -19.6554
35.635948 97.088 -19.7689
35.894180 97.076 -19.8855
36.154285 97.064 -20.0028
36.416275 97.051 -20.1194
36.680161 97.037 -20.2338
36.945961 97.022 -20.3429
37.213688 97.008 -20.4508
37.483353 96.996 -20.5610
37.754974 96.984 -20.6728
38.028561 96.970 -20.7880
38.304131 96.956 -20.9038
38.581699 96.942 -21.0173
38.861279 96.928 -21.1308
39.142883 96.913 -21.2470
39.426529 96.898 -21.3618
39.712231 96.881 -21.4720
40.000000 96.864 -21.5788
40.289856 96.848 -21.6822
40.581814 96.833 -21.7839
40.875885 96.817 -21.8860
41.172089 96.802 -21.9868
41.470440 96.787 -22.0843
41.770950 96.772 -22.1818
42.073643 96.759 -22.2827
42.378525 96.746 -22.3859
42.685616 96.731 -22.4920
42.994934 96.716 -22.5989
43.306492 96.702 -22.7029
43.620308 96.688 -22.8088
43.936401 96.676 -22.9205
44.254780 96.664 -23.0368
44.575470 96.650 -23.1586
44.898483 96.635 -23.2838
45.223835 96.621 -23.4101
45.551544 96.606 -23.5388
45.881630 96.591 -23.6715
46.214108 96.575 -23.8058
46.548996 96.557 -23.9405
46.886307 96.538 -24.0738
47.226067 96.519 -24.2030
47.568283 96.499 -24.3298
47.912983 96.480 -24.4548
48.260181 96.460 -24.5778
48.609894 96.440 -24.6983
48.962143 96.419 -24.8178
49.316940 96.399 -24.9377
49.674313 96.379 -25.0578
50.034271 96.358 -25.1788
50.396843 96.336 -25.2998
50.762039 96.315 -25.4207
51.129883 96.293 -25.5398
51.500389 96.269 -25.6565
51.873581 96.243 -25.7668
52.249481 96.217 -25.8656
52.628101 96.191 -25.9559
53.009464 96.167 -26.0384
53.393593 96.143 -26.1149
53.780506 96.120 -26.1873
54.170223 96.097 -26.2549
54.562763 96.075 -26.3151
54.958145 96.056 -26.3759
55.356396 96.041 -26.4445
55.757530 96.027 -26.5209
56.161572 96.011 -26.6085
56.568542 95.995 -26.7038
56.978462 95.980 -26.8041
57.391350 95.965 -26.9108
57.807232 95.949 -27.0252
58.226128 95.932 -27.1448
58.648056 95.914 -27.2677
59.073048 95.894 -27.3928
59.501114 95.874 -27.5185
59.932281 95.853 -27.6438
60.366577 95.831 -27.7669
60.804020 95.808 -27.8878
61.244629 95.785 -28.0056
61.688435 95.762 -28.1208
62.135452 95.739 -28.2337
62.585712 95.715 -28.3438
63.039234 95.691 -28.4503
63.496040 95.667 -28.5548
63.956161 95.644 -28.6586
64.419617 95.622 -28.7628
64.886421 95.599 -28.8685
65.356621 95.576 -28.9768
65.830215 95.554 -29.0898
66.307251 95.532 -29.2058
66.787743 95.508 -29.3244
67.271713 95.483 -29.4438
67.759193 95.458 -29.5623
68.250206 95.431 -29.6788
68.744774 95.403 -29.7930
69.242928 95.374 -29.9008
69.744690 95.344 -29.9966
70.250084 95.314 -30.0848
70.759148 95.287 -30.1672
71.271896 95.261 -30.2469
71.788361 95.234 -30.3285
72.308571 95.208 -30.4088
72.832550 95.181 -30.4845
73.360321 95.156 -30.5609
73.891922 95.134 -30.6420
74.427376 95.112 -30.7278
74.966705 95.088 -30.8214
75.509949 95.064 -30.9178
76.057121 95.039 -31.0124
76.608261 95.013 -31.1078
77.163399 94.989 -31.2054
77.722557 94.965 -31.3048
78.285767 94.939 -31.4067
78.853058 94.912 -31.5098
79.424461 94.886 -31.6132
80.000000 94.860 -31.7168
80.579712 94.832 -31.8212
81.163628 94.803 -31.9228
81.751770 94.773 -32.0178
82.344177 94.742 -32.1078
82.940880 94.713 -32.1926
83.541901 94.684 -32.2738
84.147285 94.655 -32.3531
84.757050 94.626 -32.4309
85.371231 94.599 -32.5075
85.989868 94.572 -32.5848
86.612984 94.545 -32.6647
87.240616 94.519 -32.7478
87.872803 94.493 -32.8354
88.509560 94.467 -32.9278
89.150940 94.441 -33.0268
89.796967 94.413 -33.1288
90.447670 94.383 -33.2317
91.103088 94.352 -33.3328
91.763260 94.321 -33.4282
92.428215 94.289 -33.5188
93.097992 94.256 -33.6040
93.772614 94.223 -33.6838
94.452133 94.191 -33.7578
95.136566 94.159 -33.8279
95.825966 94.128 -33.8955
96.520363 94.097 -33.9619
97.219788 94.067 -34.0279
97.924286 94.037 -34.0949
98.633881 94.008 -34.1639
99.348625 93.979 -34.2368
100.068542 93.951 -34.3182
100.793686 93.921 -34.4018
101.524078 93.888 -34.4833
102.259766 93.854 -34.5608
103.000778 93.821 -34.6297
103.747162 93.788 -34.6939
104.498962 93.756 -34.7557
105.256203 93.724 -34.8149
106.018929 93.692 -34.8715
106.787186 93.660 -34.9269
107.561012 93.630 -34.9812
108.340446 93.601 -35.0379
109.125526 93.572 -35.1017
109.916290 93.543 -35.1699
110.712791 93.513 -35.2419
111.515060 93.482 -35.3158
112.323143 93.451 -35.3895
113.137085 93.419 -35.4628
113.956924 93.387 -35.5351
114.782700 93.354 -35.6058
115.614464 93.321 -35.6742
116.452255 93.288 -35.7409
117.296112 93.255 -35.8054
118.146095 93.222 -35.8699
119.002228 93.190 -35.9363
119.864563 93.157 -36.0038
120.733154 93.123 -36.0733
121.608040 93.088 -36.1418
122.489258 93.053 -36.2071
123.376869 93.017 -36.2689
124.270905 92.981 -36.3258
125.171425 92.945 -36.3789
126.078468 92.909 -36.4279
126.992081 92.874 -36.4749
127.912323 92.840 -36.5211
128.839233 92.806 -36.5689
129.772842 92.772 -36.6217
130.713242 92.738 -36.6769
131.660431 92.703 -36.7335
132.614502 92.667 -36.7898
133.575485 92.630 -36.8437
134.543427 92.593 -36.8959
135.518387 92.556 -36.9485
136.500412 92.518 -36.9959
137.489548 92.476 -37.0333
138.485855 92.434 -37.0609
139.489380 92.395 -37.0751
140.500168 92.357 -37.0830
141.518295 92.321 -37.0906
142.543793 92.286 -37.0980
143.576721 92.251 -37.1073
144.617142 92.217 -37.1180
145.665100 92.184 -37.1293
146.720642 92.151 -37.1440
147.783844 92.119 -37.1639
148.854752 92.088 -37.1899
149.933411 92.057 -37.2242
151.019897 92.025 -37.2639
152.114243 91.992 -37.3078
153.216522 91.957 -37.3539
154.326797 91.921 -37.3998
155.445114 91.885 -37.4459
156.571533 91.849 -37.4925
157.706116 91.811 -37.5379
158.848923 91.772 -37.5820
160.000000 91.731 -37.6209
161.159424 91.689 -37.6511
162.327255 91.646 -37.6720
163.503540 91.604 -37.6808
164.688354 91.562 -37.6810
165.881760 91.521 -37.6748
167.083801 91.481 -37.6630
168.294571 91.442 -37.6473
169.514099 91.403 -37.6280
170.742462 91.365 -37.6046
171.979736 91.329 -37.5821
173.225967 91.296 -37.5660
174.481232 91.263 -37.5550
175.745605 91.229 -37.5504
177.019119 91.195 -37.5500
178.301880 91.161 -37.5522
179.593933 91.127 -37.5570
180.895340 91.091 -37.5645
182.206177 91.055 -37.5720
183.526520 91.019 -37.5761
184.856430 90.982 -37.5790
186.195984 90.945 -37.5824
187.545227 90.908 -37.5850
188.904266 90.871 -37.5857
190.273132 90.833 -37.5850
191.651932 90.796 -37.5821
193.040726 90.759 -37.5800
194.439575 90.723 -37.5822
195.848572 90.686 -37.5860
197.267761 90.647 -37.5905
198.697250 90.607 -37.5940
200.137085 90.568 -37.5951
201.587372 90.527 -37.5920
203.048157 90.484 -37.5831
204.519531 90.440 -37.5671
206.001556 90.398 -37.5408
207.494324 90.356 -37.5081
208.997925 90.315 -37.4718
210.512405 90.274 -37.4311
212.037857 90.232 -37.3865
213.574371 90.191 -37.3371
215.122025 90.151 -37.2815
216.680893 90.112 -37.2222
218.251053 90.074 -37.1606
219.832581 90.037 -37.0992
221.425583 90.001 -37.0410
223.030121 89.966 -36.9851
224.646286 89.932 -36.9319
226.274170 89.897 -36.8811
227.913849 89.862 -36.8322
229.565399 89.827 -36.7861
231.228928 89.794 -36.7440
232.904510 89.760 -36.7051
234.592224 89.725 -36.6699
236.292191 89.689 -36.6361
238.004456 89.653 -36.6017
239.729126 89.617 -36.5661
241.466309 89.580 -36.5280
243.216080 89.542 -36.4881
244.978516 89.505 -36.4461
246.753738 89.469 -36.4041
248.541809 89.433 -36.3653
250.342850 89.396 -36.3271
252.156937 89.358 -36.2883
253.984161 89.319 -36.2481
255.824646 89.281 -36.2051
257.678467 89.242 -36.1601
259.545685 89.203 -36.1140
261.426483 89.164 -36.0661
263.320862 89.124 -36.0161
265.229004 89.084 -35.9641
267.150970 89.044 -35.9107
269.086853 89.004 -35.8552
271.036774 88.963 -35.7971
273.000824 88.922 -35.7362
274.979095 88.881 -35.6726
276.971710 88.839 -35.6042
278.978760 88.796 -35.5294
281.000336 88.753 -35.4472
283.036591 88.710 -35.3549
285.087585 88.668 -35.2563
287.153442 88.627 -35.1547
289.234283 88.587 -35.0493
291.330200 88.546 -34.9401
293.441284 88.506 -34.8273
295.567688 88.468 -34.7097
297.709503 88.430 -34.5913
299.866821 88.394 -34.4770
302.039795 88.358 -34.3633
304.228485 88.321 -34.2485
306.433044 88.284 -34.1323
308.653595 88.249 -34.0133
310.890228 88.214 -33.8943
313.143066 88.180 -33.7784
315.412231 88.146 -33.6643
317.697845 88.112 -33.5514
320.000000 88.078 -33.4413
322.318848 88.046 -33.3356
324.654510 88.013 -33.2333
327.007080 87.979 -33.1348
329.376709 87.944 -33.0373
331.763519 87.908 -32.9386
334.167603 87.872 -32.8373
336.589142 87.835 -32.7319
339.028198 87.797 -32.6213
341.484924 87.759 -32.5041
343.959473 87.720 -32.3804
346.451935 87.682 -32.2489
348.962463 87.645 -32.1124
351.491211 87.610 -31.9716
354.038239 87.576 -31.8304
356.603760 87.543 -31.6929
359.187866 87.511 -31.5584
361.790680 87.478 -31.4278
364.412354 87.445 -31.3004
367.053040 87.413 -31.1760
369.712860 87.380 -31.0534
372.391968 87.346 -30.9323
375.090454 87.310 -30.8094
377.808533 87.273 -30.6813
380.546265 87.236 -30.5474
383.303864 87.199 -30.4046
386.081451 87.163 -30.2564
388.879150 87.128 -30.1051
391.697144 87.094 -29.9525
394.535522 87.060 -29.8013
397.394501 87.027 -29.6514
400.274170 86.994 -29.5045
403.174744 86.960 -29.3575
406.096313 86.924 -29.2084
409.039062 86.888 -29.0555
412.003113 86.852 -28.8963
414.988647 86.815 -28.7305
417.995850 86.778 -28.5571
421.024811 86.742 -28.3766
424.075714 86.706 -28.1892
427.148743 86.671 -27.9956
430.244049 86.636 -27.7960
433.361786 86.603 -27.5927
436.502106 86.572 -27.3878
439.665161 86.542 -27.1826
442.851166 86.512 -26.9792
446.060242 86.483 -26.7766
449.292572 86.454 -26.5747
452.548340 86.426 -26.3736
455.827698 86.399 -26.1732
459.130798 86.372 -25.9746
462.457855 86.345 -25.7794
465.809021 86.319 -25.5866
469.184448 86.293 -25.3958
472.584381 86.267 -25.2076
476.008911 86.241 -25.0241
479.458252 86.214 -24.8406
482.932617 86.184 -24.6523
486.432159 86.154 -24.4606
489.957031 86.126 -24.2647
493.507477 86.099 -24.0666
497.083618 86.070 -23.8701
500.685699 86.041 -23.6697
504.313873 86.010 -23.4590
507.968323 85.980 -23.2437
511.649292 85.954 -23.0277
515.356934 85.929 -22.8107
519.091370 85.901 -22.5958
522.852966 85.871 -22.3767
526.641724 85.841 -22.1456
530.458008 85.813 -21.9098
534.301941 85.789 -21.6752
538.173706 85.765 -21.4388
542.073547 85.737 -21.2016
546.001648 85.708 -20.9579
549.958191 85.681 -20.6989
553.943420 85.656 -20.4339
557.957520 85.634 -20.1684
562.000671 85.614 -19.9039
566.073181 85.593 -19.6444
570.175171 85.573 -19.3878
574.306885 85.555 -19.1327
578.468567 85.537 -18.8809
582.660400 85.519 -18.6344
586.882568 85.501 -18.3918
591.135376 85.482 -18.1536
595.419006 85.462 -17.9158
599.733643 85.441 -17.6757
604.079590 85.419 -17.4299
608.456970 85.396 -17.1735
612.866089 85.373 -16.9089
617.307190 85.352 -16.6364
621.780457 85.331 -16.3569
626.286133 85.311 -16.0711
630.824463 85.291 -15.7810
635.395691 85.274 -15.4886
640.000000 85.258 -15.1950
644.637695 85.242 -14.9029
649.309021 85.227 -14.6100
654.014160 85.212 -14.3139
658.753418 85.197 -14.0170
663.527039 85.185 -13.7211
668.335205 85.173 -13.4250
673.178284 85.159 -13.1295
678.056396 85.145 -12.8300
682.969849 85.132 -12.5208
687.918945 85.119 -12.2061
692.903870 85.108 -11.8881
697.924927 85.099 -11.5671
702.982422 85.090 -11.2442
708.076477 85.082 -10.9192
713.207520 85.076 -10.5912
718.375732 85.071 -10.2642
723.581360 85.068 -9.9415
728.824707 85.066 -9.6231
734.106079 85.065 -9.3104
739.425720 85.064 -9.0031
744.783936 85.064 -8.7020
750.180908 85.064 -8.4060
755.617065 85.063 -8.1150
761.092529 85.062 -7.8270
766.607727 85.060 -7.5416
772.162903 85.056 -7.2550
777.758301 85.051 -6.9645
783.394287 85.044 -6.6671
789.071045 85.037 -6.3590
794.789001 85.029 -6.0392
800.548340 85.021 -5.7049
806.349487 85.014 -5.3563
812.192627 85.007 -4.9924
818.078125 85.001 -4.6134
824.006226 84.997 -4.2173
829.977295 84.996 -3.8095
835.991699 84.999 -3.3936
842.049622 85.005 -2.9726
848.151428 85.013 -2.5503
854.297485 85.023 -2.1266
860.488098 85.036 -1.7022
