* Measurement data measured by REW V5.20.13
* Source: C:\Users\kurin\Desktop\Targets and Curves\Resolve\Img\Files\NF NM2+_SPL.txt
* Format: Comma/Tab/Space delimited data
* Dated: Aug 14, 2023 6:26:21 PM
* REW Settings:
*  C-weighting compensation: Off
*  Target level: 75.0 dB
* Note: ; Measurement imported from C:\Users\kurin\Desktop\Targets and Curves\Resolve\Img\Files\NF NM2+_SPL.txt Format: Comma/Tab/Space delimited data 623 values loaded, 5 Hz to 39,792 Hz log spaced 
* Measurement: NF NM2+_SPL
* Smoothing: 1/48 octave
* Frequency Step: 1/96 octave
* Start Frequency: 5.000 Hz
*
* Freq(Hz) SPL(dB) Phase(degrees)
5.000000 83.068 19.6930
5.036232 83.075 19.6863
5.072727 83.082 19.6790
5.109486 83.090 19.6706
5.146511 83.100 19.6610
5.183805 83.112 19.6494
5.221369 83.125 19.6370
5.259205 83.138 19.6253
5.297316 83.152 19.6130
5.335702 83.167 19.5992
5.374367 83.182 19.5850
5.413311 83.196 19.5714
5.452538 83.211 19.5580
5.492050 83.226 19.5446
5.531847 83.241 19.5310
5.571934 83.256 19.5171
5.612310 83.271 19.5030
5.652979 83.286 19.4891
5.693943 83.301 19.4750
5.735204 83.316 19.4605
5.776763 83.331 19.4460
5.818624 83.346 19.4321
5.860788 83.361 19.4180
5.903258 83.375 19.4031
5.946035 83.390 19.3880
5.989123 83.405 19.3735
6.032523 83.420 19.3590
6.076237 83.435 19.3441
6.120268 83.450 19.3290
6.164618 83.465 19.3136
6.209289 83.480 19.2980
6.254284 83.495 19.2825
6.299605 83.510 19.2670
6.345255 83.525 19.2516
6.391235 83.540 19.2360
6.437549 83.554 19.2201
6.484198 83.569 19.2040
6.531185 83.584 19.1881
6.578513 83.599 19.1720
6.626183 83.614 19.1556
6.674199 83.629 19.1390
6.722563 83.644 19.1225
6.771278 83.659 19.1060
6.820345 83.674 19.0896
6.869768 83.689 19.0730
6.919549 83.703 19.0561
6.969691 83.718 19.0390
7.020196 83.733 19.0216
7.071068 83.748 19.0040
7.122308 83.763 18.9866
7.173919 83.778 18.9690
7.225904 83.793 18.9511
7.278266 83.808 18.9330
7.331007 83.823 18.9150
7.384131 83.838 18.8970
7.437639 83.853 18.8791
7.491535 83.868 18.8610
7.545822 83.882 18.8426
7.600502 83.897 18.8240
7.655579 83.912 18.8051
7.711054 83.927 18.7860
7.766932 83.942 18.7671
7.823214 83.957 18.7480
7.879904 83.972 18.7286
7.937005 83.987 18.7090
7.994520 84.002 18.6896
8.052452 84.017 18.6700
8.110803 84.032 18.6501
8.169578 84.047 18.6300
8.228777 84.061 18.6101
8.288406 84.076 18.5900
8.348468 84.091 18.5696
8.408964 84.106 18.5490
8.469899 84.121 18.5281
8.531276 84.136 18.5070
8.593097 84.151 18.4861
8.655366 84.166 18.4650
8.718086 84.181 18.4436
8.781260 84.196 18.4220
8.844893 84.210 18.4001
8.908987 84.225 18.3780
8.973545 84.240 18.3560
9.038571 84.255 18.3340
9.104069 84.270 18.3121
9.170040 84.285 18.2900
9.236490 84.300 18.2671
9.303422 84.315 18.2440
9.370838 84.330 18.2211
9.438744 84.345 18.1980
9.507140 84.360 18.1746
9.576033 84.375 18.1510
9.645425 84.389 18.1276
9.715320 84.404 18.1040
9.785721 84.419 18.0801
9.856632 84.434 18.0560
9.928058 84.449 18.0316
10.000000 84.464 18.0070
10.072464 84.479 17.9826
10.145453 84.494 17.9580
10.218971 84.509 17.9326
10.293022 84.524 17.9070
10.367610 84.539 17.8815
10.442738 84.554 17.8560
10.518411 84.568 17.8306
10.594631 84.583 17.8050
10.671404 84.598 17.7786
10.748734 84.613 17.7520
10.826623 84.628 17.7256
10.905077 84.643 17.6990
10.984100 84.658 17.6721
11.063695 84.673 17.6450
11.143867 84.688 17.6176
11.224621 84.703 17.5900
11.305959 84.718 17.5626
11.387886 84.733 17.5350
11.470407 84.747 17.5066
11.553527 84.762 17.4780
11.637249 84.777 17.4496
11.721577 84.792 17.4210
11.806517 84.807 17.3922
11.892071 84.822 17.3630
11.978246 84.837 17.3336
12.065045 84.852 17.3040
12.152473 84.867 17.2741
12.240536 84.882 17.2440
12.329235 84.896 17.2141
12.418578 84.911 17.1840
12.508568 84.926 17.1531
12.599211 84.941 17.1220
12.690510 84.956 17.0911
12.782471 84.971 17.0600
12.875097 84.986 17.0287
12.968395 85.001 16.9970
13.062370 85.016 16.9646
13.157025 85.031 16.9320
13.252366 85.046 16.8995
13.348398 85.061 16.8670
13.445127 85.075 16.8347
13.542556 85.090 16.8020
13.640691 85.105 16.7687
13.739536 85.120 16.7350
13.839099 85.135 16.7011
13.939383 85.150 16.6670
14.040393 85.165 16.6331
14.142136 85.180 16.5990
14.244616 85.195 16.5641
14.347837 85.210 16.5290
14.451808 85.225 16.4941
14.556532 85.240 16.4590
14.662014 85.254 16.4232
14.768262 85.269 16.3870
14.875278 85.284 16.3511
14.983070 85.299 16.3150
15.091644 85.314 16.2787
15.201005 85.329 16.2420
15.311157 85.344 16.2052
15.422109 85.359 16.1680
15.533863 85.374 16.1306
15.646428 85.389 16.0930
15.759809 85.403 16.0551
15.874010 85.418 16.0170
15.989040 85.433 15.9786
16.104904 85.448 15.9400
16.221605 85.463 15.9015
16.339155 85.478 15.8630
16.457554 85.493 15.8246
16.576813 85.508 15.7860
16.696936 85.523 15.7471
16.817928 85.538 15.7080
16.939798 85.553 15.6691
17.062551 85.568 15.6301
17.186193 85.582 15.5905
17.310732 85.597 15.5510
17.436172 85.612 15.5125
17.562521 85.627 15.4740
17.689787 85.642 15.4350
17.817974 85.657 15.3960
17.947090 85.672 15.3578
18.077143 85.687 15.3200
18.208138 85.702 15.2828
18.340080 85.717 15.2460
18.472980 85.732 15.2096
18.606844 85.747 15.1740
18.741676 85.761 15.1398
18.877487 85.776 15.1070
19.014280 85.791 15.0755
19.152065 85.806 15.0460
19.290850 85.821 15.0187
19.430639 85.836 14.9950
19.571442 85.851 14.9761
19.713264 85.866 14.9630
19.856115 85.881 14.9573
20.000000 85.898 14.9590
20.144928 85.916 14.9698
20.290907 85.937 14.9860
20.437943 85.961 15.0073
20.586044 85.988 15.0250
20.735220 86.021 15.0327
20.885475 86.058 15.0230
21.036821 86.098 14.9868
21.189262 86.140 14.9231
21.342808 86.182 14.8276
21.497467 86.223 14.7012
21.653246 86.263 14.5410
21.810154 86.299 14.3543
21.968201 86.330 14.1440
22.127390 86.357 13.9203
22.287735 86.377 13.6920
22.449242 86.393 13.4652
22.611917 86.405 13.2484
22.775772 86.413 13.0432
22.940815 86.419 12.8542
23.107054 86.424 12.6812
23.274498 86.427 12.5267
23.443153 86.430 12.3882
23.613033 86.434 12.2656
23.784142 86.440 12.1541
23.956491 86.448 12.0508
24.130091 86.457 11.9501
24.304947 86.469 11.8467
24.481071 86.482 11.7371
24.658470 86.496 11.6161
24.837156 86.511 11.4842
25.017136 86.525 11.3399
25.198421 86.538 11.1852
25.381020 86.548 11.0190
25.564941 86.556 10.8482
25.750195 86.560 10.6770
25.936790 86.561 10.5122
26.124741 86.558 10.3616
26.314051 86.554 10.2262
26.504732 86.549 10.1103
26.696796 86.545 10.0111
26.890253 86.542 9.9285
27.085112 86.540 9.8581
27.281382 86.540 9.7966
27.479073 86.542 9.7401
27.678198 86.547 9.6845
27.878765 86.553 9.6271
28.080786 86.561 9.5640
28.284271 86.569 9.4951
28.489231 86.578 9.4179
28.695675 86.587 9.3351
28.903616 86.594 9.2478
29.113064 86.601 9.1581
29.324028 86.608 9.0686
29.536524 86.614 8.9791
29.750557 86.620 8.8907
29.966141 86.626 8.8031
30.183289 86.631 8.7162
30.402010 86.637 8.6301
30.622314 86.643 8.5448
30.844217 86.649 8.4601
31.067726 86.654 8.3759
31.292856 86.660 8.2921
31.519617 86.666 8.2086
31.748020 86.672 8.1251
31.978081 86.678 8.0415
32.209808 86.683 7.9581
32.443211 86.688 7.8750
32.678310 86.694 7.7921
32.915108 86.700 7.7091
33.153625 86.706 7.6261
33.393871 86.711 7.5431
33.635857 86.717 7.4601
33.879597 86.723 7.3777
34.125103 86.729 7.2951
34.372387 86.734 7.2117
34.621464 86.740 7.1281
34.872345 86.746 7.0447
35.125042 86.752 6.9611
35.379574 86.758 6.8773
35.635948 86.763 6.7931
35.894180 86.769 6.7081
36.154285 86.774 6.6231
36.416275 86.779 6.5386
36.680161 86.784 6.4551
36.945961 86.789 6.3732
37.213688 86.794 6.2931
37.483353 86.799 6.2156
37.754974 86.804 6.1391
38.028561 86.811 6.0632
38.304131 86.818 5.9851
38.581699 86.826 5.9014
38.861279 86.834 5.8131
39.142883 86.842 5.7203
39.426529 86.849 5.6231
39.712231 86.857 5.5216
40.000000 86.864 5.4162
40.289856 86.870 5.3056
40.581814 86.874 5.1942
40.875885 86.876 5.0852
41.172089 86.878 4.9802
41.470440 86.879 4.8820
41.770950 86.880 4.7901
42.073643 86.880 4.7049
42.378525 86.881 4.6261
42.685616 86.883 4.5549
42.994934 86.886 4.4881
43.306492 86.890 4.4239
43.620308 86.896 4.3591
43.936401 86.904 4.2904
44.254780 86.913 4.2161
44.575470 86.923 4.1344
44.898483 86.933 4.0432
45.223835 86.945 3.9400
45.551544 86.957 3.8242
45.881630 86.968 3.6919
46.214108 86.977 3.5492
46.548996 86.982 3.3994
46.886307 86.985 3.2472
47.226067 86.986 3.0983
47.568283 86.985 2.9532
47.912983 86.983 2.8139
48.260181 86.980 2.6822
48.609894 86.975 2.5608
48.962143 86.969 2.4492
49.316940 86.965 2.3491
49.674313 86.961 2.2561
50.034271 86.959 2.1670
50.396843 86.957 2.0801
50.762039 86.956 1.9929
51.129883 86.955 1.9052
51.500389 86.955 1.8158
51.873581 86.955 1.7252
52.249481 86.955 1.6332
52.628101 86.955 1.5402
53.009464 86.955 1.4463
53.393593 86.955 1.3512
53.780506 86.955 1.2545
54.170223 86.955 1.1562
54.562763 86.955 1.0558
54.958145 86.955 0.9532
55.356396 86.954 0.8479
55.757530 86.953 0.7402
56.161572 86.951 0.6295
56.568542 86.949 0.5182
56.978462 86.945 0.4074
57.391350 86.939 0.3002
57.807232 86.932 0.2002
58.226128 86.925 0.1072
58.648056 86.918 0.0224
59.073048 86.910 -0.0549
59.501114 86.903 -0.1248
59.932281 86.896 -0.1879
60.366577 86.890 -0.2437
60.804020 86.886 -0.2959
61.244629 86.883 -0.3475
61.688435 86.881 -0.3999
62.135452 86.880 -0.4556
62.585712 86.880 -0.5139
63.039234 86.880 -0.5751
63.496040 86.880 -0.6389
63.956161 86.880 -0.7054
64.419617 86.880 -0.7739
64.886421 86.880 -0.8437
65.356621 86.880 -0.9149
65.830215 86.880 -0.9874
66.307251 86.880 -1.0609
66.787743 86.880 -1.1349
67.271713 86.880 -1.2099
67.759193 86.880 -1.2859
68.250206 86.880 -1.3629
68.744774 86.880 -1.4404
69.242928 86.880 -1.5189
69.744690 86.880 -1.5984
70.250084 86.880 -1.6788
70.759148 86.880 -1.7600
71.271896 86.880 -1.8418
71.788361 86.880 -1.9244
72.308571 86.880 -2.0078
72.832550 86.880 -2.0923
73.360321 86.880 -2.1778
73.891922 86.880 -2.2643
74.427376 86.880 -2.3518
74.966705 86.880 -2.4406
75.509949 86.880 -2.5308
76.057121 86.880 -2.6226
76.608261 86.880 -2.7158
77.163399 86.880 -2.8104
77.722557 86.880 -2.9068
78.285767 86.880 -3.0050
78.853058 86.880 -3.1058
79.424461 86.880 -3.2100
80.000000 86.880 -3.3178
80.579712 86.880 -3.4293
81.163628 86.879 -3.5448
81.751770 86.877 -3.6648
82.344177 86.875 -3.7877
82.940880 86.872 -3.9129
83.541901 86.867 -4.0378
84.147285 86.861 -4.1597
84.757050 86.854 -4.2788
85.371231 86.847 -4.3940
85.989868 86.840 -4.5058
86.612984 86.832 -4.6140
87.240616 86.823 -4.7188
87.872803 86.816 -4.8201
88.509560 86.808 -4.9188
89.150940 86.800 -5.0161
89.796967 86.791 -5.1108
90.447670 86.782 -5.2021
91.103088 86.774 -5.2908
91.763260 86.766 -5.3776
92.428215 86.759 -5.4628
93.097992 86.752 -5.5466
93.772614 86.745 -5.6298
94.452133 86.739 -5.7125
95.136566 86.733 -5.7978
95.825966 86.729 -5.8891
96.520363 86.725 -5.9858
97.219788 86.720 -6.0895
97.924286 86.713 -6.1968
98.633881 86.705 -6.3046
99.348625 86.697 -6.4128
100.068542 86.689 -6.5210
100.793686 86.679 -6.6267
101.524078 86.667 -6.7280
102.259766 86.654 -6.8228
103.000778 86.642 -6.9067
103.747162 86.630 -6.9849
104.498962 86.620 -7.0605
105.256203 86.611 -7.1349
106.018929 86.602 -7.2097
106.787186 86.593 -7.2859
107.561012 86.586 -7.3641
108.340446 86.579 -7.4459
109.125526 86.572 -7.5334
109.916290 86.565 -7.6248
110.712791 86.557 -7.7187
111.515060 86.548 -7.8158
112.323143 86.540 -7.9165
113.137085 86.531 -8.0198
113.956924 86.521 -8.1254
114.782700 86.509 -8.2307
115.614464 86.496 -8.3330
116.452255 86.482 -8.4318
117.296112 86.468 -8.5260
118.146095 86.454 -8.6148
119.002228 86.439 -8.6967
119.864563 86.423 -8.7728
120.733154 86.409 -8.8431
121.608040 86.395 -8.9099
122.489258 86.382 -8.9741
123.376869 86.370 -9.0388
124.270905 86.360 -9.1069
125.171425 86.350 -9.1799
126.078468 86.340 -9.2611
126.992081 86.330 -9.3478
127.912323 86.318 -9.4388
128.839233 86.305 -9.5318
129.772842 86.291 -9.6245
130.713242 86.276 -9.7158
131.660431 86.260 -9.8040
132.614502 86.243 -9.8888
133.575485 86.226 -9.9694
134.543427 86.208 -10.0449
135.518387 86.189 -10.1136
136.500412 86.170 -10.1759
137.489548 86.151 -10.2308
138.485855 86.132 -10.2809
139.489380 86.115 -10.3294
140.500168 86.097 -10.3739
141.518295 86.078 -10.4131
142.543793 86.059 -10.4469
143.576721 86.042 -10.4740
144.617142 86.025 -10.4970
145.665100 86.009 -10.5184
146.720642 85.994 -10.5370
147.783844 85.979 -10.5521
148.854752 85.964 -10.5640
149.933411 85.951 -10.5712
151.019897 85.939 -10.5780
152.114243 85.928 -10.5878
153.216522 85.919 -10.6010
154.326797 85.911 -10.6184
155.445114 85.904 -10.6419
156.571533 85.898 -10.6742
157.706116 85.891 -10.7139
158.848923 85.884 -10.7611
160.000000 85.876 -10.8139
161.159424 85.868 -10.8704
162.327255 85.860 -10.9309
163.503540 85.851 -10.9952
164.688354 85.842 -11.0619
165.881760 85.831 -11.1295
167.083801 85.820 -11.1978
168.294571 85.809 -11.2649
169.514099 85.798 -11.3338
170.742462 85.788 -11.4076
171.979736 85.777 -11.4848
173.225967 85.764 -11.5662
174.481232 85.750 -11.6488
175.745605 85.735 -11.7291
177.019119 85.720 -11.8088
178.301880 85.705 -11.8899
179.593933 85.688 -11.9688
180.895340 85.670 -12.0433
182.206177 85.650 -12.1118
183.526520 85.630 -12.1709
184.856430 85.610 -12.2239
186.195984 85.591 -12.2734
187.545227 85.573 -12.3189
188.904266 85.554 -12.3603
190.273132 85.535 -12.3989
191.651932 85.518 -12.4350
193.040726 85.502 -12.4709
194.439575 85.486 -12.5097
195.848572 85.470 -12.5499
197.267761 85.453 -12.5911
198.697250 85.436 -12.6329
200.137085 85.420 -12.6744
201.587372 85.404 -12.7169
203.048157 85.388 -12.7614
204.519531 85.372 -12.8079
206.001556 85.356 -12.8561
207.494324 85.339 -12.9069
208.997925 85.322 -12.9621
210.512405 85.305 -13.0189
212.037857 85.286 -13.0748
213.574371 85.266 -13.1299
215.122025 85.247 -13.1831
216.680893 85.227 -13.2349
218.251053 85.205 -13.2861
219.832581 85.183 -13.3349
221.425583 85.161 -13.3791
223.030121 85.138 -13.4199
224.646286 85.116 -13.4580
226.274170 85.093 -13.4929
227.913849 85.070 -13.5237
229.565399 85.046 -13.5519
231.228928 85.023 -13.5797
232.904510 84.999 -13.6049
234.592224 84.973 -13.6273
236.292191 84.947 -13.6430
238.004456 84.921 -13.6465
239.729126 84.895 -13.6430
241.466309 84.871 -13.6361
243.216080 84.848 -13.6250
244.978516 84.823 -13.6107
246.753738 84.799 -13.5921
248.541809 84.777 -13.5669
250.342850 84.757 -13.5401
252.156937 84.738 -13.5158
253.984161 84.719 -13.4941
255.824646 84.700 -13.4764
257.678467 84.682 -13.4620
259.545685 84.664 -13.4506
261.426483 84.647 -13.4430
263.320862 84.630 -13.4409
265.229004 84.612 -13.4420
267.150970 84.593 -13.4447
269.086853 84.573 -13.4490
271.036774 84.554 -13.4544
273.000824 84.534 -13.4610
274.979095 84.514 -13.4699
276.971710 84.492 -13.4780
278.978760 84.469 -13.4824
281.000336 84.445 -13.4830
283.036591 84.422 -13.4780
285.087585 84.399 -13.4700
287.153442 84.376 -13.4618
289.234283 84.353 -13.4510
291.330200 84.329 -13.4359
293.441284 84.304 -13.4181
295.567688 84.281 -13.3984
297.709503 84.258 -13.3781
299.866821 84.235 -13.3592
302.039795 84.211 -13.3391
304.228485 84.187 -13.3152
306.433044 84.162 -13.2891
308.653595 84.138 -13.2617
310.890228 84.114 -13.2321
313.143066 84.089 -13.2001
315.412231 84.063 -13.1641
317.697845 84.037 -13.1215
320.000000 84.012 -13.0751
322.318848 83.988 -13.0275
324.654510 83.964 -12.9772
327.007080 83.939 -12.9233
329.376709 83.914 -12.8662
331.763519 83.890 -12.8049
334.167603 83.867 -12.7422
336.589142 83.845 -12.6806
339.028198 83.823 -12.6192
341.484924 83.800 -12.5574
343.959473 83.778 -12.4962
346.451935 83.757 -12.4367
348.962463 83.736 -12.3782
351.491211 83.714 -12.3206
354.038239 83.692 -12.2632
356.603760 83.670 -12.2047
359.187866 83.648 -12.1462
361.790680 83.626 -12.0882
364.412354 83.603 -12.0302
367.053040 83.581 -11.9715
369.712860 83.558 -11.9132
372.391968 83.536 -11.8564
375.090454 83.513 -11.8002
377.808533 83.489 -11.7453
380.546265 83.463 -11.6882
383.303864 83.437 -11.6251
386.081451 83.410 -11.5572
388.879150 83.384 -11.4847
391.697144 83.357 -11.4072
394.535522 83.330 -11.3248
397.394501 83.302 -11.2363
400.274170 83.274 -11.1396
403.174744 83.247 -11.0373
406.096313 83.221 -10.9303
409.039062 83.196 -10.8213
412.003113 83.172 -10.7152
414.988647 83.147 -10.6074
417.995850 83.121 -10.4946
421.024811 83.095 -10.3784
424.075714 83.072 -10.2581
427.148743 83.049 -10.1364
430.244049 83.026 -10.0167
433.361786 83.002 -9.8964
436.502106 82.978 -9.7731
439.665161 82.955 -9.6494
442.851166 82.934 -9.5275
446.060242 82.912 -9.4064
449.292572 82.889 -9.2862
452.548340 82.865 -9.1654
455.827698 82.842 -9.0415
459.130798 82.818 -8.9164
462.457855 82.795 -8.7923
465.809021 82.771 -8.6654
469.184448 82.745 -8.5322
472.584381 82.719 -8.3934
476.008911 82.694 -8.2477
479.458252 82.670 -8.0985
482.932617 82.646 -7.9498
486.432159 82.622 -7.7985
489.957031 82.597 -7.6422
493.507477 82.572 -7.4825
497.083618 82.549 -7.3193
500.685699 82.527 -7.1555
504.313873 82.505 -6.9950
507.968323 82.482 -6.8345
511.649292 82.458 -6.6727
515.356934 82.433 -6.5076
519.091370 82.407 -6.3368
522.852966 82.381 -6.1596
526.641724 82.355 -5.9748
530.458008 82.329 -5.7817
534.301941 82.302 -5.5791
538.173706 82.276 -5.3667
542.073547 82.250 -5.1423
546.001648 82.226 -4.9108
549.958191 82.205 -4.6755
553.943420 82.186 -4.4388
557.957520 82.167 -4.2040
562.000671 82.149 -3.9708
566.073181 82.132 -3.7397
570.175171 82.116 -3.5117
574.306885 82.100 -3.2891
578.468567 82.083 -3.0688
582.660400 82.066 -2.8493
586.882568 82.048 -2.6288
591.135376 82.030 -2.4047
595.419006 82.011 -2.1778
599.733643 81.993 -1.9481
604.079590 81.974 -1.7148
608.456970 81.955 -1.4774
612.866089 81.936 -1.2358
617.307190 81.918 -0.9899
621.780457 81.899 -0.7398
626.286133 81.880 -0.4861
630.824463 81.861 -0.2279
635.395691 81.843 0.0355
640.000000 81.824 0.3041
644.637695 81.805 0.5775
649.309021 81.786 0.8570
654.014160 81.768 1.1441
658.753418 81.749 1.4380
663.527039 81.730 1.7383
668.335205 81.712 2.0459
673.178284 81.695 2.3624
678.056396 81.678 2.6859
682.969849 81.663 3.0156
687.918945 81.648 3.3508
692.903870 81.634 3.6899
697.924927 81.620 4.0348
702.982422 81.606 4.3877
708.076477 81.594 4.7457
713.207520 81.584 5.1068
718.375732 81.575 5.4707
723.581360 81.566 5.8358
728.824707 81.557 6.2037
734.106079 81.548 6.5751
739.425720 81.540 6.9507
744.783936 81.532 7.3304
750.180908 81.524 7.7166
755.617065 81.516 8.1111
761.092529 81.508 8.5145
766.607727 81.500 8.9277
772.162903 81.493 9.3525
777.758301 81.486 9.7907
783.394287 81.480 10.2424
789.071045 81.476 10.7086
794.789001 81.474 11.1873
800.548340 81.474 11.6769
806.349487 81.476 12.1762
812.192627 81.481 12.6837
818.078125 81.488 13.1991
824.006226 81.497 13.7220
829.977295 81.508 14.2521
835.991699 81.522 14.7899
842.049622 81.539 15.3330
848.151428 81.560 15.8794
854.297485 81.583 16.4280
860.488098 81.608 16.9764
866.723572 81.636 17.5260
873.004211 81.667 18.0775
879.330322 81.700 18.6300
885.702332 81.736 19.1824
892.120483 81.774 19.7360
898.585144 81.814 20.2920
905.096680 81.858 20.8499
911.655396 81.905 21.4111
918.261597 81.957 21.9719
924.915710 82.012 22.5307
931.618042 82.073 23.0830
938.368896 82.139 23.6252
945.168762 82.210 24.1530
952.017822 82.284 24.6620
958.916504 82.363 25.1492
965.865234 82.445 25.6105
972.864319 82.531 26.0454
979.914062 82.617 26.4518
987.014954 82.706 26.8306
994.167236 82.795 27.1821
1001.371399 82.886 27.5069
