* Measurement data measured by REW V5.20.13
* Source: C:\Users\kurin\Desktop\Targets and Curves\Resolve\Img\Files\SA6 Mk2 gras No Bass_SPL.txt
* Format: Comma/Tab/Space delimited data
* Dated: Aug 14, 2023 6:57:27 PM
* REW Settings:
*  C-weighting compensation: Off
*  Target level: 75.0 dB
* Note: ; Measurement imported from C:\Users\kurin\Desktop\Targets and Curves\Resolve\Img\Files\SA6 Mk2 gras No Bass_SPL.txt Format: Comma/Tab/Space delimited data 623 values loaded, 5 Hz to 39,792 Hz log spaced 
* Measurement: SA6 Mk2 gras No Bass_SPL
* Smoothing: 1/48 octave
* Frequency Step: 1/96 octave
* Start Frequency: 5.000 Hz
*
* Freq(Hz) SPL(dB) Phase(degrees)
5.000000 86.408 1.1510
5.036232 86.409 1.1462
5.072727 86.410 1.1410
5.109486 86.411 1.1349
5.146511 86.412 1.1280
5.183805 86.413 1.1199
5.221369 86.415 1.1110
5.259205 86.416 1.1013
5.297316 86.418 1.0910
5.335702 86.419 1.0806
5.374367 86.421 1.0700
5.413311 86.423 1.0591
5.452538 86.425 1.0480
5.492050 86.427 1.0371
5.531847 86.429 1.0260
5.571934 86.430 1.0146
5.612310 86.432 1.0030
5.652979 86.434 0.9915
5.693943 86.436 0.9800
5.735204 86.438 0.9685
5.776763 86.439 0.9570
5.818624 86.441 0.9456
5.860788 86.443 0.9340
5.903258 86.444 0.9221
5.946035 86.446 0.9100
5.989123 86.448 0.8981
6.032523 86.450 0.8860
6.076237 86.451 0.8736
6.120268 86.453 0.8610
6.164618 86.455 0.8485
6.209289 86.457 0.8360
6.254284 86.459 0.8235
6.299605 86.461 0.8110
6.345255 86.462 0.7986
6.391235 86.464 0.7860
6.437549 86.466 0.7731
6.484198 86.468 0.7600
6.531185 86.470 0.7465
6.578513 86.471 0.7330
6.626183 86.473 0.7200
6.674199 86.475 0.7070
6.722563 86.476 0.6936
6.771278 86.478 0.6800
6.820345 86.480 0.6661
6.869768 86.482 0.6520
6.919549 86.484 0.6380
6.969691 86.486 0.6240
7.020196 86.487 0.6101
7.071068 86.489 0.5960
7.122308 86.491 0.5816
7.173919 86.493 0.5670
7.225904 86.494 0.5526
7.278266 86.496 0.5380
7.331007 86.498 0.5231
7.384131 86.500 0.5080
7.437639 86.501 0.4930
7.491535 86.503 0.4780
7.545822 86.505 0.4631
7.600502 86.507 0.4480
7.655579 86.509 0.4326
7.711054 86.511 0.4170
7.766932 86.512 0.4011
7.823214 86.514 0.3850
7.879904 86.516 0.3690
7.937005 86.518 0.3530
7.994520 86.520 0.3371
8.052452 86.521 0.3210
8.110803 86.523 0.3046
8.169578 86.525 0.2880
8.228777 86.526 0.2716
8.288406 86.528 0.2550
8.348468 86.530 0.2381
8.408964 86.532 0.2210
8.469899 86.534 0.2041
8.531276 86.536 0.1870
8.593097 86.537 0.1696
8.655366 86.539 0.1520
8.718086 86.541 0.1341
8.781260 86.543 0.1160
8.844893 86.544 0.0980
8.908987 86.546 0.0800
8.973545 86.548 0.0621
9.038571 86.550 0.0440
9.104069 86.551 0.0256
9.170040 86.553 0.0070
9.236490 86.555 -0.0119
9.303422 86.557 -0.0310
9.370838 86.559 -0.0500
9.438744 86.561 -0.0690
9.507140 86.562 -0.0879
9.576033 86.564 -0.1070
9.645425 86.566 -0.1269
9.715320 86.568 -0.1470
9.785721 86.569 -0.1664
9.856632 86.571 -0.1860
9.928058 86.573 -0.2064
10.000000 86.575 -0.2270
10.072464 86.576 -0.2474
10.145453 86.578 -0.2680
10.218971 86.580 -0.2889
10.293022 86.582 -0.3100
10.367610 86.583 -0.3309
10.442738 86.585 -0.3520
10.518411 86.587 -0.3734
10.594631 86.589 -0.3950
10.671404 86.591 -0.4169
10.748734 86.593 -0.4390
10.826623 86.594 -0.4609
10.905077 86.596 -0.4830
10.984100 86.598 -0.5054
11.063695 86.600 -0.5280
11.143867 86.601 -0.5504
11.224621 86.603 -0.5730
11.305959 86.605 -0.5964
11.387886 86.607 -0.6200
11.470407 86.608 -0.6434
11.553527 86.610 -0.6670
11.637249 86.612 -0.6909
11.721577 86.614 -0.7150
11.806517 86.616 -0.7389
11.892071 86.618 -0.7630
11.978246 86.619 -0.7874
12.065045 86.621 -0.8120
12.152473 86.623 -0.8369
12.240536 86.625 -0.8620
12.329235 86.626 -0.8874
12.418578 86.628 -0.9130
12.508568 86.630 -0.9389
12.599211 86.632 -0.9650
12.690510 86.633 -0.9909
12.782471 86.635 -1.0170
12.875097 86.637 -1.0434
12.968395 86.639 -1.0700
13.062370 86.641 -1.0969
13.157025 86.643 -1.1240
13.252366 86.645 -1.1514
13.348398 86.646 -1.1790
13.445127 86.648 -1.2063
13.542556 86.650 -1.2340
13.640691 86.651 -1.2624
13.739536 86.653 -1.2910
13.839099 86.655 -1.3194
13.939383 86.657 -1.3480
14.040393 86.659 -1.3774
14.142136 86.660 -1.4070
14.244616 86.662 -1.4364
14.347837 86.664 -1.4660
14.451808 86.666 -1.4959
14.556532 86.668 -1.5260
14.662014 86.669 -1.5564
14.768262 86.671 -1.5870
14.875278 86.673 -1.6178
14.983070 86.675 -1.6490
15.091644 86.676 -1.6803
15.201005 86.678 -1.7120
15.311157 86.680 -1.7439
15.422109 86.682 -1.7760
15.533863 86.683 -1.8084
15.646428 86.685 -1.8410
15.759809 86.687 -1.8739
15.874010 86.689 -1.9070
15.989040 86.691 -1.9404
16.104904 86.693 -1.9740
16.221605 86.694 -2.0078
16.339155 86.696 -2.0420
16.457554 86.698 -2.0763
16.576813 86.700 -2.1110
16.696936 86.701 -2.1459
16.817928 86.703 -2.1810
16.939798 86.705 -2.2164
17.062551 86.707 -2.2520
17.186193 86.708 -2.2873
17.310732 86.710 -2.3230
17.436172 86.712 -2.3593
17.562521 86.714 -2.3960
17.689787 86.716 -2.4328
17.817974 86.718 -2.4700
17.947090 86.719 -2.5074
18.077143 86.721 -2.5450
18.208138 86.723 -2.5824
18.340080 86.725 -2.6200
18.472980 86.726 -2.6578
18.606844 86.728 -2.6960
18.741676 86.730 -2.7344
18.877487 86.732 -2.7730
19.014280 86.733 -2.8116
19.152065 86.735 -2.8500
19.290850 86.737 -2.8877
19.430639 86.739 -2.9250
19.571442 86.740 -2.9620
19.713264 86.742 -2.9980
19.856115 86.744 -3.0321
20.000000 86.746 -3.0650
20.144928 86.749 -3.0960
20.290907 86.752 -3.1270
20.437943 86.757 -3.1589
20.586044 86.762 -3.1940
20.735220 86.768 -3.2347
20.885475 86.774 -3.2809
21.036821 86.780 -3.3335
21.189262 86.787 -3.3919
21.342808 86.793 -3.4562
21.497467 86.799 -3.5259
21.653246 86.804 -3.6015
21.810154 86.807 -3.6799
21.968201 86.809 -3.7587
22.127390 86.810 -3.8369
22.287735 86.811 -3.9124
22.449242 86.812 -3.9859
22.611917 86.812 -4.0574
22.775772 86.812 -4.1269
22.940815 86.812 -4.1946
23.107054 86.812 -4.2609
23.274498 86.812 -4.3263
23.443153 86.812 -4.3909
23.613033 86.812 -4.4551
23.784142 86.812 -4.5189
23.956491 86.812 -4.5825
24.130091 86.812 -4.6459
24.304947 86.812 -4.7095
24.481071 86.812 -4.7729
24.658470 86.812 -4.8359
24.837156 86.812 -4.8989
25.017136 86.812 -4.9624
25.198421 86.812 -5.0259
25.381020 86.812 -5.0894
25.564941 86.812 -5.1529
25.750195 86.812 -5.2168
25.936790 86.812 -5.2809
26.124741 86.812 -5.3452
26.314051 86.812 -5.4099
26.504732 86.812 -5.4753
26.696796 86.812 -5.5409
26.890253 86.812 -5.6063
27.085112 86.812 -5.6719
27.281382 86.812 -5.7382
27.479073 86.812 -5.8049
27.678198 86.812 -5.8722
27.878765 86.812 -5.9399
28.080786 86.812 -6.0077
28.284271 86.812 -6.0759
28.489231 86.812 -6.1446
28.695675 86.812 -6.2139
28.903616 86.812 -6.2841
29.113064 86.812 -6.3549
29.324028 86.812 -6.4262
29.536524 86.812 -6.4979
29.750557 86.812 -6.5701
29.966141 86.812 -6.6429
30.183289 86.812 -6.7166
30.402010 86.812 -6.7909
30.622314 86.812 -6.8655
30.844217 86.812 -6.9409
31.067726 86.812 -7.0175
31.292856 86.812 -7.0949
31.519617 86.812 -7.1730
31.748020 86.812 -7.2519
31.978081 86.812 -7.3315
32.209808 86.812 -7.4119
32.443211 86.812 -7.4934
32.678310 86.812 -7.5759
32.915108 86.812 -7.6593
33.153625 86.812 -7.7439
33.393871 86.812 -7.8298
33.635857 86.812 -7.9169
33.879597 86.812 -8.0052
34.125103 86.812 -8.0949
34.372387 86.812 -8.1861
34.621464 86.812 -8.2789
34.872345 86.812 -8.3730
35.125042 86.812 -8.4689
35.379574 86.812 -8.5668
35.635948 86.812 -8.6669
35.894180 86.812 -8.7689
36.154285 86.812 -8.8738
36.416275 86.812 -8.9830
36.680161 86.812 -9.0958
36.945961 86.811 -9.2124
37.213688 86.810 -9.3328
37.483353 86.809 -9.4574
37.754974 86.807 -9.5848
38.028561 86.804 -9.7144
38.304131 86.799 -9.8438
38.581699 86.793 -9.9703
38.861279 86.787 -10.0948
39.142883 86.781 -10.2169
39.426529 86.775 -10.3378
39.712231 86.768 -10.4588
40.000000 86.761 -10.5798
40.289856 86.754 -10.7009
40.581814 86.747 -10.8228
40.875885 86.740 -10.9474
41.172089 86.731 -11.0708
41.470440 86.720 -11.1900
41.770950 86.708 -11.3038
42.073643 86.696 -11.4100
42.378525 86.684 -11.5089
42.685616 86.672 -11.5996
42.994934 86.660 -11.6829
43.306492 86.650 -11.7576
43.620308 86.641 -11.8289
43.936401 86.635 -11.9002
44.254780 86.631 -11.9759
44.575470 86.628 -12.0615
44.898483 86.626 -12.1568
45.223835 86.624 -12.2641
45.551544 86.621 -12.3818
45.881630 86.617 -12.5106
46.214108 86.612 -12.6458
46.548996 86.604 -12.7848
46.886307 86.593 -12.9228
47.226067 86.581 -13.0537
47.568283 86.568 -13.1788
47.912983 86.555 -13.2975
48.260181 86.542 -13.4088
48.609894 86.527 -13.5113
48.962143 86.512 -13.6059
49.316940 86.500 -13.6902
49.674313 86.489 -13.7719
50.034271 86.481 -13.8575
50.396843 86.473 -13.9469
50.762039 86.465 -14.0418
51.129883 86.457 -14.1428
51.500389 86.451 -14.2509
51.873581 86.444 -14.3658
52.249481 86.436 -14.4896
52.628101 86.426 -14.6168
53.009464 86.414 -14.7425
53.393593 86.401 -14.8668
53.780506 86.389 -14.9875
54.170223 86.376 -15.1058
54.562763 86.362 -15.2226
54.958145 86.348 -15.3368
55.356396 86.334 -15.4476
55.757530 86.319 -15.5558
56.161572 86.305 -15.6621
56.568542 86.290 -15.7658
56.978462 86.275 -15.8661
57.391350 86.261 -15.9648
57.807232 86.247 -16.0637
58.226128 86.234 -16.1628
58.648056 86.221 -16.2631
59.073048 86.207 -16.3638
59.501114 86.193 -16.4639
59.932281 86.180 -16.5658
60.366577 86.168 -16.6724
60.804020 86.156 -16.7818
61.244629 86.141 -16.8948
61.688435 86.124 -17.0058
62.135452 86.107 -17.1087
62.585712 86.090 -17.2058
63.039234 86.073 -17.2967
63.496040 86.057 -17.3839
63.956161 86.042 -17.4695
64.419617 86.028 -17.5548
64.886421 86.015 -17.6402
65.356621 86.003 -17.7298
65.830215 85.993 -17.8288
66.307251 85.983 -17.9358
66.787743 85.971 -18.0521
67.271713 85.958 -18.1748
67.759193 85.945 -18.3013
68.250206 85.931 -18.4308
68.744774 85.915 -18.5618
69.242928 85.898 -18.6928
69.744690 85.880 -18.8213
70.250084 85.861 -18.9478
70.759148 85.841 -19.0725
71.271896 85.821 -19.1938
71.788361 85.800 -19.3093
72.308571 85.778 -19.4218
72.832550 85.758 -19.5333
73.360321 85.738 -19.6428
73.891922 85.715 -19.7509
74.427376 85.692 -19.8548
74.966705 85.669 -19.9506
75.509949 85.647 -20.0428
76.057121 85.626 -20.1352
76.608261 85.605 -20.2268
77.163399 85.583 -20.3187
77.722557 85.561 -20.4088
78.285767 85.539 -20.4950
78.853058 85.517 -20.5788
79.424461 85.495 -20.6607
80.000000 85.474 -20.7418
80.579712 85.453 -20.8232
81.163628 85.433 -20.9058
81.751770 85.412 -20.9920
82.344177 85.391 -21.0788
82.940880 85.369 -21.1634
83.541901 85.348 -21.2478
84.147285 85.327 -21.3326
84.757050 85.307 -21.4198
85.371231 85.287 -21.5135
85.989868 85.265 -21.6078
86.612984 85.241 -21.6981
87.240616 85.216 -21.7848
87.872803 85.193 -21.8649
88.509560 85.170 -21.9438
89.150940 85.149 -22.0267
89.796967 85.127 -22.1118
90.447670 85.104 -22.1996
91.103088 85.080 -22.2888
91.763260 85.057 -22.3786
92.428215 85.033 -22.4688
93.097992 85.008 -22.5604
93.772614 84.982 -22.6498
94.452133 84.954 -22.7342
95.136566 84.926 -22.8128
95.825966 84.898 -22.8833
96.520363 84.870 -22.9479
97.219788 84.843 -23.0069
97.924286 84.816 -23.0639
98.633881 84.791 -23.1219
99.348625 84.767 -23.1819
100.068542 84.742 -23.2465
100.793686 84.717 -23.3138
101.524078 84.692 -23.3833
102.259766 84.666 -23.4538
103.000778 84.640 -23.5258
103.747162 84.612 -23.5949
104.498962 84.582 -23.6561
105.256203 84.552 -23.7119
106.018929 84.524 -23.7621
106.787186 84.497 -23.8099
107.561012 84.470 -23.8596
108.340446 84.442 -23.9079
109.125526 84.414 -23.9518
109.916290 84.386 -23.9949
110.712791 84.361 -24.0402
111.515060 84.336 -24.0869
112.323143 84.308 -24.1363
113.137085 84.280 -24.1849
113.956924 84.252 -24.2279
114.782700 84.225 -24.2709
115.614464 84.200 -24.3183
116.452255 84.175 -24.3689
117.296112 84.147 -24.4239
118.146095 84.119 -24.4809
119.002228 84.091 -24.5380
119.864563 84.062 -24.5948
120.733154 84.032 -24.6510
121.608040 84.000 -24.7039
122.489258 83.967 -24.7507
123.376869 83.934 -24.7919
124.270905 83.902 -24.8272
125.171425 83.869 -24.8560
126.078468 83.835 -24.8764
126.992081 83.801 -24.8920
127.912323 83.771 -24.9050
128.839233 83.741 -24.9170
129.772842 83.710 -24.9309
130.713242 83.678 -24.9440
131.660431 83.647 -24.9528
132.614502 83.617 -24.9620
133.575485 83.588 -24.9766
134.543427 83.559 -24.9920
135.518387 83.526 -25.0056
136.500412 83.493 -25.0160
137.489548 83.462 -25.0192
138.485855 83.431 -25.0200
139.489380 83.400 -25.0229
140.500168 83.369 -25.0240
141.518295 83.336 -25.0196
142.543793 83.304 -25.0130
143.576721 83.275 -25.0065
144.617142 83.245 -25.0000
145.665100 83.213 -24.9953
146.720642 83.181 -24.9890
147.783844 83.150 -24.9772
148.854752 83.119 -24.9640
149.933411 83.089 -24.9537
151.019897 83.058 -24.9420
152.114243 83.025 -24.9257
153.216522 82.992 -24.9071
154.326797 82.962 -24.8869
155.445114 82.932 -24.8660
156.571533 82.901 -24.8460
157.706116 82.869 -24.8251
158.848923 82.838 -24.8010
160.000000 82.806 -24.7761
161.159424 82.775 -24.7527
162.327255 82.744 -24.7281
163.503540 82.711 -24.6998
164.688354 82.677 -24.6681
165.881760 82.645 -24.6323
167.083801 82.613 -24.5921
168.294571 82.580 -24.5467
169.514099 82.546 -24.4971
170.742462 82.514 -24.4431
171.979736 82.483 -24.3872
173.225967 82.452 -24.3328
174.481232 82.422 -24.2771
175.745605 82.391 -24.2173
177.019119 82.361 -24.1571
178.301880 82.334 -24.1000
179.593933 82.306 -24.0451
180.895340 82.276 -23.9948
182.206177 82.246 -23.9441
183.526520 82.216 -23.8869
184.856430 82.186 -23.8291
186.195984 82.158 -23.7756
187.545227 82.130 -23.7231
188.904266 82.099 -23.6705
190.273132 82.068 -23.6171
191.651932 82.038 -23.5616
193.040726 82.008 -23.5052
194.439575 81.977 -23.4493
195.848572 81.945 -23.3912
197.267761 81.913 -23.3284
198.697250 81.880 -23.2612
200.137085 81.848 -23.1894
201.587372 81.815 -23.1122
203.048157 81.781 -23.0275
204.519531 81.748 -22.9383
206.001556 81.717 -22.8460
207.494324 81.687 -22.7522
208.997925 81.657 -22.6600
210.512405 81.626 -22.5662
212.037857 81.595 -22.4672
213.574371 81.564 -22.3672
215.122025 81.536 -22.2711
216.680893 81.507 -22.1743
218.251053 81.474 -22.0747
219.832581 81.441 -21.9693
221.425583 81.410 -21.8526
223.030121 81.380 -21.7303
224.646286 81.351 -21.6076
226.274170 81.322 -21.4813
227.913849 81.292 -21.3489
229.565399 81.263 -21.2133
231.228928 81.237 -21.0751
232.904510 81.213 -20.9394
234.592224 81.190 -20.8129
236.292191 81.168 -20.6923
238.004456 81.144 -20.5767
239.729126 81.119 -20.4653
241.466309 81.096 -20.3582
243.216080 81.071 -20.2523
244.978516 81.044 -20.1459
246.753738 81.015 -20.0343
248.541809 80.985 -19.9106
250.342850 80.956 -19.7794
252.156937 80.929 -19.6424
253.984161 80.903 -19.5024
255.824646 80.877 -19.3627
257.678467 80.852 -19.2233
259.545685 80.828 -19.0851
261.426483 80.804 -18.9493
263.320862 80.781 -18.8191
265.229004 80.757 -18.6904
267.150970 80.730 -18.5619
269.086853 80.702 -18.4284
271.036774 80.674 -18.2831
273.000824 80.645 -18.1295
274.979095 80.618 -17.9686
276.971710 80.591 -17.8015
278.978760 80.565 -17.6298
281.000336 80.539 -17.4535
283.036591 80.515 -17.2717
285.087585 80.492 -17.0886
287.153442 80.471 -16.9083
289.234283 80.451 -16.7295
291.330200 80.430 -16.5527
293.441284 80.409 -16.3765
295.567688 80.389 -16.1996
297.709503 80.370 -16.0225
299.866821 80.350 -15.8455
302.039795 80.330 -15.6675
304.228485 80.310 -15.4863
306.433044 80.291 -15.3055
308.653595 80.275 -15.1291
310.890228 80.258 -14.9545
313.143066 80.238 -14.7817
315.412231 80.218 -14.6075
317.697845 80.199 -14.4277
320.000000 80.180 -14.2445
322.318848 80.161 -14.0591
324.654510 80.143 -13.8716
327.007080 80.125 -13.6832
329.376709 80.107 -13.4926
331.763519 80.089 -13.2997
334.167603 80.070 -13.1026
336.589142 80.052 -12.8989
339.028198 80.034 -12.6906
341.484924 80.018 -12.4794
343.959473 80.002 -12.2646
346.451935 79.986 -12.0469
348.962463 79.971 -11.8246
351.491211 79.957 -11.5950
354.038239 79.944 -11.3627
356.603760 79.934 -11.1301
359.187866 79.926 -10.9007
361.790680 79.919 -10.6785
364.412354 79.913 -10.4636
367.053040 79.908 -10.2575
369.712860 79.904 -10.0606
372.391968 79.899 -9.8756
375.090454 79.893 -9.6965
377.808533 79.884 -9.5195
380.546265 79.874 -9.3405
383.303864 79.863 -9.1546
386.081451 79.851 -8.9616
388.879150 79.839 -8.7596
391.697144 79.827 -8.5487
394.535522 79.815 -8.3275
397.394501 79.805 -8.0987
400.274170 79.797 -7.8628
403.174744 79.790 -7.6248
406.096313 79.786 -7.3890
409.039062 79.784 -7.1567
412.003113 79.783 -6.9306
414.988647 79.782 -6.7097
417.995850 79.782 -6.4939
421.024811 79.782 -6.2827
424.075714 79.782 -6.0760
427.148743 79.782 -5.8726
430.244049 79.782 -5.6712
433.361786 79.782 -5.4716
436.502106 79.782 -5.2736
439.665161 79.782 -5.0766
442.851166 79.782 -4.8804
446.060242 79.782 -4.6846
449.292572 79.782 -4.4887
452.548340 79.782 -4.2926
455.827698 79.782 -4.0961
459.130798 79.782 -3.8986
462.457855 79.782 -3.6997
465.809021 79.782 -3.4986
469.184448 79.782 -3.2949
472.584381 79.782 -3.0876
476.008911 79.783 -2.8760
479.458252 79.784 -2.6597
482.932617 79.786 -2.4374
486.432159 79.789 -2.2117
489.957031 79.794 -1.9834
493.507477 79.801 -1.7567
497.083618 79.811 -1.5353
500.685699 79.822 -1.3217
504.313873 79.834 -1.1197
507.968323 79.847 -0.9286
511.649292 79.860 -0.7498
515.356934 79.872 -0.5805
519.091370 79.883 -0.4201
522.852966 79.892 -0.2645
526.641724 79.899 -0.1106
530.458008 79.905 0.0455
534.301941 79.909 0.2086
538.173706 79.912 0.3794
542.073547 79.916 0.5612
546.001648 79.921 0.7503
549.958191 79.927 0.9442
553.943420 79.934 1.1424
557.957520 79.941 1.3444
562.000671 79.950 1.5483
566.073181 79.961 1.7529
570.175171 79.974 1.9553
574.306885 79.988 2.1518
578.468567 80.002 2.3443
582.660400 80.016 2.5341
586.882568 80.031 2.7194
591.135376 80.048 2.8995
595.419006 80.066 3.0724
599.733643 80.084 3.2349
604.079590 80.101 3.3895
608.456970 80.118 3.5374
612.866089 80.134 3.6795
617.307190 80.149 3.8162
621.780457 80.163 3.9506
626.286133 80.176 4.0841
630.824463 80.187 4.2225
635.395691 80.195 4.3724
640.000000 80.202 4.5324
644.637695 80.212 4.7055
649.309021 80.224 4.8864
654.014160 80.237 5.0707
658.753418 80.251 5.2594
663.527039 80.266 5.4549
668.335205 80.284 5.6484
673.178284 80.307 5.8317
678.056396 80.331 6.0044
682.969849 80.354 6.1610
687.918945 80.376 6.3085
692.903870 80.397 6.4529
697.924927 80.418 6.5915
702.982422 80.440 6.7215
708.076477 80.461 6.8495
713.207520 80.476 6.9801
718.375732 80.491 7.1165
723.581360 80.508 7.2658
728.824707 80.527 7.4204
734.106079 80.546 7.5744
739.425720 80.566 7.7294
744.783936 80.586 7.8851
750.180908 80.606 8.0424
755.617065 80.627 8.2032
761.092529 80.649 8.3654
766.607727 80.672 8.5279
772.162903 80.696 8.6904
777.758301 80.721 8.8530
783.394287 80.748 9.0144
789.071045 80.775 9.1745
794.789001 80.804 9.3305
800.548340 80.835 9.4795
806.349487 80.868 9.6215
812.192627 80.900 9.7552
818.078125 80.932 9.8806
824.006226 80.965 9.9973
829.977295 80.999 10.1056
835.991699 81.031 10.2035
842.049622 81.063 10.2967
848.151428 81.093 10.3901
854.297485 81.122 10.4837
860.488098 81.152 10.5786
866.723572 81.182 10.6756
873.004211 81.210 10.7759
879.330322 81.239 10.8786
885.702332 81.270 10.9844
892.120483 81.303 11.0906
898.585144 81.336 11.1949
905.096680 81.370 11.2976
911.655396 81.405 11.3998
918.261597 81.442 11.4976
924.915710 81.480 11.5874
931.618042 81.520 11.6697
938.368896 81.559 11.7434
945.168762 81.598 11.8098
952.017822 81.638 11.8700
