* Measurement data measured by REW V5.20.13
* Source: C:\Users\kurin\Desktop\Targets and Curves\Resolve\Img\Files\Tozo T6_SPL.txt
* Format: Comma/Tab/Space delimited data
* Dated: Aug 14, 2023 6:43:51 PM
* REW Settings:
*  C-weighting compensation: Off
*  Target level: 75.0 dB
* Note: ; Measurement imported from C:\Users\kurin\Desktop\Targets and Curves\Resolve\Img\Files\Tozo T6_SPL.txt Format: Comma/Tab/Space delimited data 623 values loaded, 5 Hz to 39,792 Hz log spaced 
* Measurement: Tozo T6_SPL
* Smoothing: 1/48 octave
* Frequency Step: 1/96 octave
* Start Frequency: 5.000 Hz
*
* Freq(Hz) SPL(dB) Phase(degrees)
5.000000 108.870 -17.7560
5.036232 108.866 -17.7665
5.072727 108.861 -17.7780
5.109486 108.855 -17.7918
5.146511 108.849 -17.8080
5.183805 108.841 -17.8275
5.221369 108.833 -17.8490
5.259205 108.824 -17.8712
5.297316 108.815 -17.8950
5.335702 108.805 -17.9211
5.374367 108.795 -17.9480
5.413311 108.785 -17.9744
5.452538 108.775 -18.0010
5.492050 108.765 -18.0284
5.531847 108.755 -18.0560
5.571934 108.745 -18.0834
5.612310 108.735 -18.1110
5.652979 108.725 -18.1394
5.693943 108.715 -18.1680
5.735204 108.705 -18.1964
5.776763 108.696 -18.2250
5.818624 108.686 -18.2539
5.860788 108.676 -18.2830
5.903258 108.666 -18.3124
5.946035 108.656 -18.3420
5.989123 108.646 -18.3719
6.032523 108.636 -18.4020
6.076237 108.626 -18.4319
6.120268 108.616 -18.4620
6.164618 108.606 -18.4928
6.209289 108.596 -18.5240
6.254284 108.586 -18.5554
6.299605 108.576 -18.5870
6.345255 108.566 -18.6184
6.391235 108.556 -18.6500
6.437549 108.547 -18.6824
6.484198 108.537 -18.7150
6.531185 108.527 -18.7474
6.578513 108.517 -18.7800
6.626183 108.507 -18.8134
6.674199 108.497 -18.8470
6.722563 108.487 -18.8804
6.771278 108.477 -18.9140
6.820345 108.467 -18.9484
6.869768 108.457 -18.9830
6.919549 108.447 -19.0174
6.969691 108.437 -19.0520
7.020196 108.427 -19.0873
7.071068 108.417 -19.1230
7.122308 108.408 -19.1589
7.173919 108.398 -19.1950
7.225904 108.388 -19.2314
7.278266 108.378 -19.2680
7.331007 108.368 -19.3049
7.384131 108.358 -19.3420
7.437639 108.348 -19.3794
7.491535 108.338 -19.4170
7.545822 108.328 -19.4548
7.600502 108.318 -19.4930
7.655579 108.308 -19.5319
7.711054 108.298 -19.5710
7.766932 108.288 -19.6099
7.823214 108.278 -19.6490
7.879904 108.269 -19.6888
7.937005 108.259 -19.7290
7.994520 108.249 -19.7693
8.052452 108.239 -19.8100
8.110803 108.229 -19.8514
8.169578 108.219 -19.8930
8.228777 108.209 -19.9344
8.288406 108.199 -19.9760
8.348468 108.189 -20.0183
8.408964 108.179 -20.0610
8.469899 108.169 -20.1038
8.531276 108.159 -20.1470
8.593097 108.149 -20.1908
8.655366 108.139 -20.2350
8.718086 108.129 -20.2794
8.781260 108.119 -20.3240
8.844893 108.110 -20.3688
8.908987 108.100 -20.4140
8.973545 108.090 -20.4598
9.038571 108.080 -20.5060
9.104069 108.070 -20.5523
9.170040 108.060 -20.5990
9.236490 108.050 -20.6463
9.303422 108.040 -20.6940
9.370838 108.030 -20.7418
9.438744 108.020 -20.7900
9.507140 108.010 -20.8388
9.576033 108.000 -20.8880
9.645425 107.990 -20.9373
9.715320 107.980 -20.9870
9.785721 107.971 -21.0373
9.856632 107.961 -21.0880
9.928058 107.951 -21.1388
10.000000 107.941 -21.1900
10.072464 107.931 -21.2417
10.145453 107.921 -21.2939
10.218971 107.911 -21.3468
10.293022 107.901 -21.4000
10.367610 107.891 -21.4533
10.442738 107.881 -21.5070
10.518411 107.871 -21.5612
10.594631 107.861 -21.6160
10.671404 107.851 -21.6712
10.748734 107.841 -21.7270
10.826623 107.832 -21.7833
10.905077 107.822 -21.8400
10.984100 107.812 -21.8967
11.063695 107.802 -21.9540
11.143867 107.792 -22.0122
11.224621 107.782 -22.0710
11.305959 107.772 -22.1298
11.387886 107.762 -22.1890
11.470407 107.752 -22.2487
11.553527 107.742 -22.3090
11.637249 107.732 -22.3697
11.721577 107.722 -22.4309
11.806517 107.712 -22.4932
11.892071 107.702 -22.5559
11.978246 107.692 -22.6188
12.065045 107.682 -22.6820
12.152473 107.673 -22.7457
12.240536 107.663 -22.8100
12.329235 107.653 -22.8752
12.418578 107.643 -22.9409
12.508568 107.633 -23.0067
12.599211 107.623 -23.0730
12.690510 107.613 -23.1401
12.782471 107.603 -23.2079
12.875097 107.593 -23.2761
12.968395 107.583 -23.3449
13.062370 107.573 -23.4147
13.157025 107.563 -23.4850
13.252366 107.553 -23.5552
13.348398 107.543 -23.6259
13.445127 107.534 -23.6981
13.542556 107.524 -23.7709
13.640691 107.514 -23.8442
13.739536 107.504 -23.9180
13.839099 107.494 -23.9921
13.939383 107.484 -24.0669
14.040393 107.474 -24.1426
14.142136 107.464 -24.2190
14.244616 107.454 -24.2957
14.347837 107.444 -24.3730
14.451808 107.434 -24.4510
14.556532 107.424 -24.5300
14.662014 107.414 -24.6101
14.768262 107.404 -24.6909
14.875278 107.395 -24.7721
14.983070 107.385 -24.8539
15.091644 107.375 -24.9366
15.201005 107.365 -25.0199
15.311157 107.355 -25.1041
15.422109 107.345 -25.1889
15.533863 107.335 -25.2746
15.646428 107.325 -25.3610
15.759809 107.315 -25.4480
15.874010 107.305 -25.5359
15.989040 107.295 -25.6250
16.104904 107.285 -25.7149
16.221605 107.275 -25.8055
16.339155 107.265 -25.8969
16.457554 107.255 -25.9890
16.576813 107.245 -26.0819
16.696936 107.236 -26.1755
16.817928 107.226 -26.2699
16.939798 107.216 -26.3654
17.062551 107.206 -26.4619
17.186193 107.196 -26.5595
17.310732 107.186 -26.6579
17.436172 107.176 -26.7571
17.562521 107.166 -26.8569
17.689787 107.156 -26.9575
17.817974 107.146 -27.0589
17.947090 107.136 -27.1615
18.077143 107.126 -27.2649
18.208138 107.116 -27.3691
18.340080 107.106 -27.4739
18.472980 107.097 -27.5791
18.606844 107.087 -27.6849
18.741676 107.077 -27.7917
18.877487 107.067 -27.8989
19.014280 107.057 -28.0064
19.152065 107.047 -28.1139
19.290850 107.037 -28.2204
19.430639 107.028 -28.3269
19.571442 107.019 -28.4338
19.713264 107.011 -28.5419
19.856115 107.003 -28.6516
20.000000 106.996 -28.7649
20.144928 106.990 -28.8842
20.290907 106.984 -29.0089
20.437943 106.977 -29.1401
20.586044 106.970 -29.2749
20.735220 106.963 -29.4099
20.885475 106.956 -29.5468
21.036821 106.950 -29.6866
21.189262 106.943 -29.8288
21.342808 106.936 -29.9731
21.497467 106.929 -30.1198
21.653246 106.923 -30.2672
21.810154 106.918 -30.4208
21.968201 106.916 -30.5849
22.127390 106.914 -30.7618
22.287735 106.911 -30.9558
22.449242 106.908 -31.1648
22.611917 106.904 -31.3896
22.775772 106.897 -31.6257
22.940815 106.887 -31.8724
23.107054 106.873 -32.1197
23.274498 106.854 -32.3569
23.443153 106.833 -32.5847
23.613033 106.814 -32.7977
23.784142 106.795 -33.0038
23.956491 106.777 -33.2095
24.130091 106.759 -33.4138
24.304947 106.740 -33.6171
24.481071 106.721 -33.8217
24.658470 106.704 -34.0286
24.837156 106.688 -34.2417
25.017136 106.671 -34.4686
25.198421 106.651 -34.6998
25.381020 106.627 -34.9293
25.564941 106.600 -35.1538
25.750195 106.574 -35.3669
25.936790 106.547 -35.5718
26.124741 106.520 -35.7692
26.314051 106.493 -35.9597
26.504732 106.467 -36.1428
26.696796 106.442 -36.3228
26.890253 106.419 -36.5035
27.085112 106.396 -36.6868
27.281382 106.373 -36.8768
27.479073 106.350 -37.0697
27.678198 106.325 -37.2629
27.878765 106.300 -37.4567
28.080786 106.276 -37.6500
28.284271 106.252 -37.8457
28.489231 106.228 -38.0479
28.695675 106.204 -38.2527
28.903616 106.177 -38.4575
29.113064 106.150 -38.6627
29.324028 106.124 -38.8675
29.536524 106.097 -39.0728
29.750557 106.069 -39.2799
29.966141 106.040 -39.4868
30.183289 106.010 -39.6915
30.402010 105.980 -39.8948
30.622314 105.950 -40.0968
30.844217 105.919 -40.2968
31.067726 105.887 -40.4940
31.292856 105.855 -40.6887
31.519617 105.823 -40.8807
31.748020 105.790 -41.0698
31.978081 105.757 -41.2558
32.209808 105.724 -41.4388
32.443211 105.692 -41.6181
32.678310 105.659 -41.7948
32.915108 105.626 -41.9691
33.153625 105.593 -42.1418
33.393871 105.561 -42.3131
33.635857 105.530 -42.4847
33.879597 105.499 -42.6589
34.125103 105.469 -42.8348
34.372387 105.438 -43.0112
34.621464 105.407 -43.1907
34.872345 105.378 -43.3751
35.125042 105.349 -43.5648
35.379574 105.319 -43.7624
35.635948 105.287 -43.9638
35.894180 105.254 -44.1651
36.154285 105.220 -44.3677
36.416275 105.187 -44.5720
36.680161 105.153 -44.7767
36.945961 105.117 -44.9814
37.213688 105.079 -45.1837
37.483353 105.042 -45.3803
37.754974 105.004 -45.5737
38.028561 104.966 -45.7655
38.304131 104.928 -45.9557
38.581699 104.890 -46.1452
38.861279 104.852 -46.3337
39.142883 104.813 -46.5216
39.426529 104.773 -46.7087
39.712231 104.735 -46.8946
40.000000 104.696 -47.0807
40.289856 104.656 -47.2691
40.581814 104.616 -47.4577
40.875885 104.575 -47.6455
41.172089 104.533 -47.8317
41.470440 104.491 -48.0154
41.770950 104.448 -48.1967
42.073643 104.405 -48.3762
42.378525 104.361 -48.5518
42.685616 104.316 -48.7214
42.994934 104.271 -48.8858
43.306492 104.227 -49.0446
43.620308 104.182 -49.1988
43.936401 104.137 -49.3487
44.254780 104.093 -49.4958
44.575470 104.051 -49.6408
44.898483 104.009 -49.7858
45.223835 103.967 -49.9332
45.551544 103.925 -50.0828
45.881630 103.884 -50.2348
46.214108 103.843 -50.3898
46.548996 103.802 -50.5482
46.886307 103.760 -50.7097
47.226067 103.718 -50.8744
47.568283 103.676 -51.0417
47.912983 103.634 -51.2115
48.260181 103.590 -51.3827
48.609894 103.545 -51.5549
48.962143 103.499 -51.7267
49.316940 103.453 -51.8970
49.674313 103.405 -52.0647
50.034271 103.356 -52.2289
50.396843 103.307 -52.3888
50.762039 103.258 -52.5432
51.129883 103.208 -52.6927
51.500389 103.158 -52.8373
51.873581 103.107 -52.9778
52.249481 103.057 -53.1147
52.628101 103.008 -53.2488
53.009464 102.959 -53.3807
53.393593 102.909 -53.5108
53.780506 102.860 -53.6398
54.170223 102.810 -53.7678
54.562763 102.761 -53.8953
54.958145 102.711 -54.0218
55.356396 102.662 -54.1470
55.757530 102.612 -54.2708
56.161572 102.562 -54.3932
56.568542 102.512 -54.5138
56.978462 102.462 -54.6322
57.391350 102.411 -54.7488
57.807232 102.361 -54.8636
58.226128 102.310 -54.9768
58.648056 102.260 -55.0886
59.073048 102.209 -55.1988
59.501114 102.159 -55.3071
59.932281 102.108 -55.4138
60.366577 102.058 -55.5194
60.804020 102.007 -55.6238
61.244629 101.957 -55.7273
61.688435 101.906 -55.8298
62.135452 101.856 -55.9314
62.585712 101.805 -56.0318
63.039234 101.755 -56.1308
63.496040 101.704 -56.2288
63.956161 101.654 -56.3267
64.419617 101.603 -56.4238
64.886421 101.553 -56.5197
65.356621 101.502 -56.6148
65.830215 101.452 -56.7096
66.307251 101.401 -56.8038
66.787743 101.351 -56.8971
67.271713 101.300 -56.9898
67.759193 101.249 -57.0820
68.250206 101.198 -57.1738
68.744774 101.148 -57.2655
69.242928 101.097 -57.3568
69.744690 101.047 -57.4479
70.250084 100.996 -57.5388
70.759148 100.946 -57.6298
71.271896 100.895 -57.7208
71.788361 100.845 -57.8118
72.308571 100.794 -57.9028
72.832550 100.744 -57.9941
73.360321 100.693 -58.0858
73.891922 100.643 -58.1780
74.427376 100.592 -58.2708
74.966705 100.542 -58.3643
75.509949 100.491 -58.4588
76.057121 100.441 -58.5546
76.608261 100.390 -58.6518
77.163399 100.340 -58.7506
77.722557 100.289 -58.8518
78.285767 100.239 -58.9560
78.853058 100.188 -59.0638
79.424461 100.137 -59.1755
80.000000 100.086 -59.2918
80.579712 100.035 -59.4136
81.163628 99.982 -59.5398
81.751770 99.928 -59.6702
82.344177 99.873 -59.8027
82.940880 99.816 -59.9353
83.541901 99.758 -60.0667
84.147285 99.698 -60.1955
84.757050 99.637 -60.3208
85.371231 99.575 -60.4414
85.989868 99.512 -60.5568
86.612984 99.448 -60.6660
87.240616 99.383 -60.7688
87.872803 99.317 -60.8645
88.509560 99.251 -60.9538
89.150940 99.185 -61.0371
89.796967 99.119 -61.1148
90.447670 99.053 -61.1877
91.103088 98.986 -61.2549
91.763260 98.919 -61.3151
92.428215 98.852 -61.3699
93.097992 98.785 -61.4200
93.772614 98.719 -61.4659
94.452133 98.653 -61.5078
95.136566 98.588 -61.5479
95.825966 98.524 -61.5885
96.520363 98.460 -61.6299
97.219788 98.396 -61.6740
97.924286 98.331 -61.7189
98.633881 98.265 -61.7632
99.348625 98.199 -61.8069
100.068542 98.133 -61.8499
100.793686 98.066 -61.8919
101.524078 97.998 -61.9335
102.259766 97.929 -61.9719
103.000778 97.858 -62.0041
103.747162 97.787 -62.0310
104.498962 97.717 -62.0520
105.256203 97.646 -62.0680
106.018929 97.574 -62.0797
106.787186 97.501 -62.0860
107.561012 97.429 -62.0855
108.340446 97.356 -62.0790
109.125526 97.283 -62.0672
109.916290 97.210 -62.0490
110.712791 97.137 -62.0239
111.515060 97.063 -61.9921
112.323143 96.990 -61.9538
113.137085 96.916 -61.9091
113.956924 96.843 -61.8579
114.782700 96.769 -61.8002
115.614464 96.696 -61.7355
116.452255 96.623 -61.6641
117.296112 96.551 -61.5855
118.146095 96.479 -61.5012
119.002228 96.408 -61.4123
119.864563 96.338 -61.3193
120.733154 96.269 -61.2221
121.608040 96.200 -61.1222
122.489258 96.132 -61.0209
123.376869 96.064 -60.9183
124.270905 95.997 -60.8150
125.171425 95.931 -60.7112
126.078468 95.865 -60.6075
126.992081 95.799 -60.5032
127.912323 95.733 -60.3982
128.839233 95.667 -60.2922
129.772842 95.601 -60.1852
130.713242 95.535 -60.0772
131.660431 95.469 -59.9684
132.614502 95.403 -59.8583
133.575485 95.337 -59.7466
134.543427 95.270 -59.6332
135.518387 95.203 -59.5182
136.500412 95.135 -59.4002
137.489548 95.067 -59.2787
138.485855 94.998 -59.1513
139.489380 94.928 -59.0156
140.500168 94.858 -58.8713
141.518295 94.788 -58.7167
142.543793 94.718 -58.5534
143.576721 94.650 -58.3810
144.617142 94.583 -58.2034
145.665100 94.518 -58.0235
146.720642 94.453 -57.8435
147.783844 94.389 -57.6662
148.854752 94.326 -57.4925
149.933411 94.263 -57.3241
151.019897 94.199 -57.1604
152.114243 94.134 -57.0040
153.216522 94.067 -56.8465
154.326797 93.995 -56.6833
155.445114 93.920 -56.5054
156.571533 93.842 -56.3024
157.706116 93.762 -56.0746
158.848923 93.682 -55.8196
160.000000 93.602 -55.5357
161.159424 93.521 -55.2208
162.327255 93.441 -54.8738
163.503540 93.364 -54.4916
164.688354 93.290 -54.0779
165.881760 93.220 -53.6354
167.083801 93.155 -53.1643
168.294571 93.094 -52.6646
169.514099 93.039 -52.1393
170.742462 92.992 -51.5872
171.979736 92.955 -51.0215
173.225967 92.930 -50.4493
174.481232 92.916 -49.8883
175.745605 92.916 -49.3527
177.019119 92.928 -48.8601
178.301880 92.951 -48.4297
179.593933 92.982 -48.0708
180.895340 93.018 -47.8004
182.206177 93.056 -47.6153
183.526520 93.091 -47.5226
184.856430 93.122 -47.5089
186.195984 93.143 -47.5704
187.545227 93.155 -47.6867
188.904266 93.154 -47.8415
190.273132 93.141 -48.0186
191.651932 93.117 -48.1988
193.040726 93.084 -48.3735
194.439575 93.042 -48.5289
195.848572 92.993 -48.6617
197.267761 92.938 -48.7639
198.697250 92.878 -48.8359
200.137085 92.816 -48.8742
201.587372 92.751 -48.8820
203.048157 92.686 -48.8605
204.519531 92.620 -48.8122
206.001556 92.555 -48.7392
207.494324 92.491 -48.6433
208.997925 92.427 -48.5256
210.512405 92.364 -48.3903
212.037857 92.304 -48.2411
213.574371 92.246 -48.0814
215.122025 92.189 -47.9156
216.680893 92.134 -47.7445
218.251053 92.081 -47.5696
219.832581 92.028 -47.3925
221.425583 91.976 -47.2156
223.030121 91.925 -47.0385
224.646286 91.875 -46.8628
226.274170 91.824 -46.6845
227.913849 91.772 -46.4999
229.565399 91.719 -46.3095
231.228928 91.668 -46.1118
232.904510 91.618 -45.9086
234.592224 91.568 -45.7017
236.292191 91.519 -45.4896
238.004456 91.470 -45.2700
239.729126 91.423 -45.0466
241.466309 91.379 -44.8197
243.216080 91.337 -44.5966
244.978516 91.298 -44.3850
246.753738 91.259 -44.1836
248.541809 91.219 -43.9952
250.342850 91.177 -43.8145
252.156937 91.135 -43.6379
253.984161 91.092 -43.4635
255.824646 91.047 -43.2900
257.678467 90.999 -43.1125
259.545685 90.950 -42.9259
261.426483 90.900 -42.7285
263.320862 90.848 -42.5163
265.229004 90.797 -42.2916
267.150970 90.748 -42.0534
269.086853 90.701 -41.8087
271.036774 90.657 -41.5644
273.000824 90.614 -41.3197
274.979095 90.570 -41.0764
276.971710 90.527 -40.8337
278.978760 90.486 -40.5917
281.000336 90.444 -40.3497
283.036591 90.401 -40.1083
285.087585 90.358 -39.8638
287.153442 90.314 -39.6115
289.234283 90.271 -39.3547
291.330200 90.231 -39.0940
293.441284 90.191 -38.8317
295.567688 90.152 -38.5710
297.709503 90.113 -38.3107
299.866821 90.075 -38.0503
302.039795 90.037 -37.7908
304.228485 90.000 -37.5336
306.433044 89.963 -37.2767
308.653595 89.925 -37.0180
310.890228 89.887 -36.7587
313.143066 89.851 -36.4995
315.412231 89.814 -36.2397
317.697845 89.776 -35.9792
320.000000 89.739 -35.7178
322.318848 89.703 -35.4552
324.654510 89.668 -35.1918
327.007080 89.632 -34.9280
329.376709 89.595 -34.6628
331.763519 89.559 -34.3961
334.167603 89.523 -34.1269
336.589142 89.486 -33.8545
339.028198 89.449 -33.5778
341.484924 89.413 -33.2951
343.959473 89.377 -33.0068
346.451935 89.341 -32.7133
348.962463 89.305 -32.4138
351.491211 89.271 -32.1068
354.038239 89.238 -31.7959
356.603760 89.207 -31.4841
359.187866 89.178 -31.1729
361.790680 89.150 -30.8658
364.412354 89.122 -30.5599
367.053040 89.094 -30.2519
369.712860 89.067 -29.9469
372.391968 89.045 -29.6496
375.090454 89.023 -29.3588
377.808533 88.998 -29.0778
380.546265 88.971 -28.7988
383.303864 88.945 -28.5130
386.081451 88.920 -28.2278
388.879150 88.898 -27.9488
391.697144 88.875 -27.6738
394.535522 88.850 -27.4045
397.394501 88.824 -27.1348
400.274170 88.798 -26.8564
403.174744 88.772 -26.5769
406.096313 88.750 -26.3017
409.039062 88.727 -26.0288
412.003113 88.701 -25.7596
414.988647 88.675 -25.4889
417.995850 88.649 -25.2095
421.024811 88.624 -24.9289
424.075714 88.602 -24.6531
427.148743 88.579 -24.3799
430.244049 88.554 -24.1111
433.361786 88.527 -23.8409
436.502106 88.500 -23.5619
439.665161 88.474 -23.2799
442.851166 88.450 -22.9994
446.060242 88.425 -22.7169
449.292572 88.398 -22.4313
452.548340 88.370 -22.1399
455.827698 88.343 -21.8375
459.130798 88.317 -21.5310
462.457855 88.294 -21.2260
465.809021 88.271 -20.9210
469.184448 88.247 -20.6168
472.584381 88.222 -20.3110
476.008911 88.199 -19.9992
479.458252 88.176 -19.6870
482.932617 88.155 -19.3796
486.432159 88.134 -19.0730
489.957031 88.110 -18.7662
493.507477 88.086 -18.4550
497.083618 88.062 -18.1329
500.685699 88.038 -17.8061
504.313873 88.017 -17.4787
507.968323 87.997 -17.1501
511.649292 87.975 -16.8225
515.356934 87.953 -16.4911
519.091370 87.931 -16.1500
522.852966 87.910 -15.8041
526.641724 87.891 -15.4560
530.458008 87.873 -15.1071
534.301941 87.856 -14.7602
538.173706 87.839 -14.4142
542.073547 87.822 -14.0691
546.001648 87.806 -13.7242
549.958191 87.790 -13.3797
553.943420 87.773 -13.0331
557.957520 87.756 -12.6815
562.000671 87.739 -12.3262
566.073181 87.724 -11.9676
570.175171 87.709 -11.6062
574.306885 87.695 -11.2427
578.468567 87.681 -10.8773
582.660400 87.668 -10.5087
586.882568 87.657 -10.1423
591.135376 87.649 -9.7836
595.419006 87.640 -9.4302
599.733643 87.629 -9.0838
604.079590 87.616 -8.7372
608.456970 87.602 -8.3837
612.866089 87.588 -8.0232
617.307190 87.574 -7.6540
621.780457 87.560 -7.2753
626.286133 87.546 -6.8855
630.824463 87.532 -6.4853
635.395691 87.521 -6.0720
640.000000 87.512 -5.6534
644.637695 87.507 -5.2361
649.309021 87.504 -4.8214
654.014160 87.502 -4.4133
658.753418 87.500 -4.0103
663.527039 87.500 -3.6130
668.335205 87.500 -3.2203
673.178284 87.500 -2.8322
678.056396 87.500 -2.4473
682.969849 87.500 -2.0642
687.918945 87.500 -1.6823
692.903870 87.500 -1.3008
697.924927 87.500 -0.9193
702.982422 87.500 -0.5372
708.076477 87.500 -0.1544
713.207520 87.500 0.2293
718.375732 87.500 0.6146
723.581360 87.500 1.0024
728.824707 87.500 1.3926
734.106079 87.500 1.7855
739.425720 87.500 2.1816
744.783936 87.500 2.5814
750.180908 87.500 2.9855
755.617065 87.500 3.3945
761.092529 87.500 3.8095
