* Measurement data measured by REW V5.20.13
* Source: C:\Users\kurin\Desktop\Targets and Curves\Resolve\Img\Files\Sennheiser_IE200_SPL.txt
* Format: Comma/Tab/Space delimited data
* Dated: Aug 14, 2023 7:29:49 PM
* REW Settings:
*  C-weighting compensation: Off
*  Target level: 75.0 dB
* Note: ; Measurement imported from C:\Users\kurin\Desktop\Targets and Curves\Resolve\Img\Files\Sennheiser_IE200_SPL.txt Format: Comma/Tab/Space delimited data 623 values loaded, 5 Hz to 39,792 Hz log spaced 
* Measurement: Sennheiser_IE200_SPL
* Smoothing: 1/48 octave
* Frequency Step: 1/96 octave
* Start Frequency: 5.000 Hz
*
* Freq(Hz) SPL(dB) Phase(degrees)
5.000000 95.242 -9.5050
5.036232 95.240 -9.5103
5.072727 95.237 -9.5160
5.109486 95.234 -9.5224
5.146511 95.231 -9.5300
5.183805 95.227 -9.5395
5.221369 95.222 -9.5500
5.259205 95.217 -9.5606
5.297316 95.212 -9.5720
5.335702 95.207 -9.5847
5.374367 95.201 -9.5980
5.413311 95.196 -9.6110
5.452538 95.190 -9.6240
5.492050 95.184 -9.6369
5.531847 95.179 -9.6500
5.571934 95.174 -9.6634
5.612310 95.169 -9.6770
5.652979 95.164 -9.6904
5.693943 95.158 -9.7040
5.735204 95.153 -9.7179
5.776763 95.147 -9.7320
5.818624 95.142 -9.7460
5.860788 95.136 -9.7600
5.903258 95.131 -9.7739
5.946035 95.125 -9.7880
5.989123 95.119 -9.8024
6.032523 95.114 -9.8170
6.076237 95.108 -9.8319
6.120268 95.103 -9.8470
6.164618 95.098 -9.8620
6.209289 95.092 -9.8770
6.254284 95.086 -9.8919
6.299605 95.081 -9.9070
6.345255 95.076 -9.9224
6.391235 95.071 -9.9380
6.437549 95.066 -9.9534
6.484198 95.060 -9.9690
6.531185 95.055 -9.9849
6.578513 95.049 -10.0010
6.626183 95.044 -10.0169
6.674199 95.038 -10.0330
6.722563 95.033 -10.0494
6.771278 95.027 -10.0660
6.820345 95.021 -10.0824
6.869768 95.016 -10.0990
6.919549 95.010 -10.1159
6.969691 95.005 -10.1330
7.020196 94.999 -10.1505
7.071068 94.994 -10.1680
7.122308 94.989 -10.1849
7.173919 94.984 -10.2020
7.225904 94.979 -10.2199
7.278266 94.973 -10.2380
7.331007 94.967 -10.2560
7.384131 94.962 -10.2740
7.437639 94.956 -10.2919
7.491535 94.951 -10.3100
7.545822 94.946 -10.3284
7.600502 94.940 -10.3470
7.655579 94.935 -10.3659
7.711054 94.929 -10.3850
7.766932 94.924 -10.4039
7.823214 94.918 -10.4230
7.879904 94.912 -10.4424
7.937005 94.907 -10.4620
7.994520 94.901 -10.4819
8.052452 94.896 -10.5020
8.110803 94.891 -10.5219
8.169578 94.886 -10.5420
8.228777 94.881 -10.5624
8.288406 94.875 -10.5830
8.348468 94.869 -10.6034
8.408964 94.864 -10.6240
8.469899 94.858 -10.6449
8.531276 94.853 -10.6660
8.593097 94.848 -10.6874
8.655366 94.842 -10.7090
8.718086 94.837 -10.7304
8.781260 94.831 -10.7520
8.844893 94.826 -10.7739
8.908987 94.820 -10.7960
8.973545 94.814 -10.8184
9.038571 94.809 -10.8410
9.104069 94.804 -10.8634
9.170040 94.799 -10.8860
9.236490 94.794 -10.9089
9.303422 94.788 -10.9320
9.370838 94.783 -10.9554
9.438744 94.777 -10.9790
9.507140 94.771 -11.0029
9.576033 94.766 -11.0270
9.645425 94.760 -11.0514
9.715320 94.755 -11.0760
9.785721 94.750 -11.1004
9.856632 94.744 -11.1250
9.928058 94.739 -11.1499
10.000000 94.733 -11.1750
10.072464 94.728 -11.2004
10.145453 94.722 -11.2260
10.218971 94.716 -11.2519
10.293022 94.711 -11.2780
10.367610 94.706 -11.3039
10.442738 94.701 -11.3300
10.518411 94.696 -11.3569
10.594631 94.690 -11.3840
10.671404 94.685 -11.4109
10.748734 94.679 -11.4380
10.826623 94.674 -11.4654
10.905077 94.668 -11.4930
10.984100 94.663 -11.5209
11.063695 94.657 -11.5490
11.143867 94.652 -11.5773
11.224621 94.646 -11.6060
11.305959 94.641 -11.6354
11.387886 94.635 -11.6650
11.470407 94.629 -11.6944
11.553527 94.624 -11.7240
11.637249 94.619 -11.7539
11.721577 94.614 -11.7840
11.806517 94.609 -11.8143
11.892071 94.603 -11.8450
11.978246 94.598 -11.8759
12.065045 94.592 -11.9070
12.152473 94.587 -11.9384
12.240536 94.581 -11.9700
12.329235 94.576 -12.0018
12.418578 94.570 -12.0340
12.508568 94.565 -12.0668
12.599211 94.559 -12.1000
12.690510 94.553 -12.1334
12.782471 94.548 -12.1670
12.875097 94.543 -12.2003
12.968395 94.537 -12.2340
13.062370 94.531 -12.2682
13.157025 94.526 -12.3030
13.252366 94.521 -12.3384
13.348398 94.516 -12.3740
13.445127 94.511 -12.4093
13.542556 94.505 -12.4450
13.640691 94.500 -12.4813
13.739536 94.494 -12.5180
13.839099 94.489 -12.5548
13.939383 94.483 -12.5920
14.040393 94.478 -12.6298
14.142136 94.472 -12.6680
14.244616 94.466 -12.7064
14.347837 94.461 -12.7450
14.451808 94.455 -12.7838
14.556532 94.450 -12.8230
14.662014 94.444 -12.8627
14.768262 94.439 -12.9030
14.875278 94.434 -12.9438
14.983070 94.429 -12.9850
15.091644 94.424 -13.0263
15.201005 94.418 -13.0680
15.311157 94.412 -13.1102
15.422109 94.407 -13.1530
15.533863 94.402 -13.1962
15.646428 94.396 -13.2400
15.759809 94.391 -13.2842
15.874010 94.385 -13.3290
15.989040 94.380 -13.3743
16.104904 94.374 -13.4200
16.221605 94.369 -13.4658
16.339155 94.363 -13.5119
16.457554 94.358 -13.5586
16.576813 94.352 -13.6060
16.696936 94.346 -13.6542
16.817928 94.341 -13.7030
16.939798 94.336 -13.7517
17.062551 94.331 -13.8009
17.186193 94.326 -13.8511
17.310732 94.320 -13.9020
17.436172 94.314 -13.9532
17.562521 94.309 -14.0050
17.689787 94.304 -14.0576
17.817974 94.298 -14.1109
17.947090 94.293 -14.1646
18.077143 94.287 -14.2190
18.208138 94.282 -14.2741
18.340080 94.276 -14.3299
18.472980 94.271 -14.3865
18.606844 94.265 -14.4440
18.741676 94.259 -14.5025
18.877487 94.254 -14.5619
19.014280 94.249 -14.6219
19.152065 94.244 -14.6829
19.290850 94.239 -14.7456
19.430639 94.233 -14.8100
19.571442 94.227 -14.8761
19.713264 94.221 -14.9439
19.856115 94.215 -15.0136
20.000000 94.209 -15.0839
20.144928 94.202 -15.1544
20.290907 94.194 -15.2229
20.437943 94.186 -15.2868
20.586044 94.177 -15.3470
20.735220 94.169 -15.4035
20.885475 94.161 -15.4569
21.036821 94.154 -15.5077
21.189262 94.148 -15.5569
21.342808 94.143 -15.6051
21.497467 94.139 -15.6549
21.653246 94.137 -15.7090
21.810154 94.135 -15.7689
21.968201 94.134 -15.8373
22.127390 94.133 -15.9139
22.287735 94.133 -15.9996
22.449242 94.132 -16.0939
22.611917 94.131 -16.1974
22.775772 94.128 -16.3079
22.940815 94.124 -16.4242
23.107054 94.119 -16.5438
23.274498 94.113 -16.6638
23.443153 94.105 -16.7848
23.613033 94.097 -16.9071
23.784142 94.088 -17.0289
23.956491 94.077 -17.1489
24.130091 94.066 -17.2659
24.304947 94.054 -17.3768
24.481071 94.042 -17.4849
24.658470 94.031 -17.5924
24.837156 94.020 -17.6989
25.017136 94.008 -17.8053
25.198421 93.995 -17.9099
25.381020 93.983 -18.0103
25.564941 93.970 -18.1089
25.750195 93.958 -18.2078
25.936790 93.945 -18.3059
26.124741 93.932 -18.4019
26.314051 93.920 -18.4979
26.504732 93.909 -18.5946
26.696796 93.898 -18.6939
26.890253 93.887 -18.7979
27.085112 93.875 -18.9059
27.281382 93.863 -19.0180
27.479073 93.851 -19.1328
27.678198 93.837 -19.2490
27.878765 93.823 -19.3658
28.080786 93.808 -19.4827
28.284271 93.792 -19.5978
28.489231 93.774 -19.7099
28.695675 93.756 -19.8179
28.903616 93.738 -19.9197
29.113064 93.720 -20.0169
29.324028 93.702 -20.1097
29.536524 93.684 -20.1999
29.750557 93.667 -20.2894
29.966141 93.651 -20.3779
30.183289 93.634 -20.4655
30.402010 93.617 -20.5529
30.622314 93.601 -20.6410
30.844217 93.584 -20.7289
31.067726 93.567 -20.8162
31.292856 93.550 -20.9029
31.519617 93.533 -20.9884
31.748020 93.517 -21.0739
31.978081 93.501 -21.1600
32.209808 93.485 -21.2469
32.443211 93.469 -21.3339
32.678310 93.454 -21.4239
32.915108 93.440 -21.5194
33.153625 93.426 -21.6209
33.393871 93.411 -21.7308
33.635857 93.395 -21.8458
33.879597 93.377 -21.9638
34.125103 93.358 -22.0828
34.372387 93.338 -22.2012
34.621464 93.316 -22.3158
34.872345 93.292 -22.4239
35.125042 93.266 -22.5229
35.379574 93.240 -22.6082
35.635948 93.215 -22.6829
35.894180 93.190 -22.7480
36.154285 93.167 -22.8059
36.416275 93.145 -22.8574
36.680161 93.126 -22.9079
36.945961 93.110 -22.9620
37.213688 93.095 -23.0229
37.483353 93.081 -23.0958
37.754974 93.067 -23.1789
38.028561 93.053 -23.2716
38.304131 93.038 -23.3749
38.581699 93.024 -23.4909
38.861279 93.008 -23.6158
39.142883 92.989 -23.7481
39.426529 92.967 -23.8828
39.712231 92.943 -24.0147
40.000000 92.918 -24.1438
40.289856 92.891 -24.2694
40.581814 92.862 -24.3878
40.875885 92.831 -24.4949
41.172089 92.799 -24.5909
41.470440 92.768 -24.6743
41.770950 92.736 -24.7459
42.073643 92.704 -24.8053
42.378525 92.673 -24.8549
42.685616 92.644 -24.8959
42.994934 92.616 -24.9319
43.306492 92.590 -24.9667
43.620308 92.566 -25.0019
43.936401 92.543 -25.0399
44.254780 92.521 -25.0829
44.575470 92.501 -25.1345
44.898483 92.480 -25.1929
45.223835 92.458 -25.2587
45.551544 92.435 -25.3289
45.881630 92.411 -25.4012
46.214108 92.387 -25.4739
46.548996 92.361 -25.5446
46.886307 92.335 -25.6129
47.226067 92.308 -25.6771
47.568283 92.281 -25.7389
47.912983 92.255 -25.7993
48.260181 92.229 -25.8589
48.609894 92.202 -25.9183
48.962143 92.175 -25.9779
49.316940 92.149 -26.0383
49.674313 92.122 -26.0989
50.034271 92.094 -26.1602
50.396843 92.065 -26.2189
50.762039 92.035 -26.2719
51.129883 92.004 -26.3189
51.500389 91.973 -26.3579
51.873581 91.943 -26.3909
52.249481 91.914 -26.4190
52.628101 91.885 -26.4440
53.009464 91.857 -26.4681
53.393593 91.830 -26.4920
53.780506 91.803 -26.5168
54.170223 91.776 -26.5420
54.562763 91.749 -26.5672
54.958145 91.723 -26.5930
55.356396 91.697 -26.6199
55.757530 91.670 -26.6470
56.161572 91.643 -26.6728
56.568542 91.616 -26.6990
56.978462 91.590 -26.7264
57.391350 91.564 -26.7549
57.807232 91.537 -26.7847
58.226128 91.510 -26.8149
58.648056 91.483 -26.8451
59.073048 91.455 -26.8750
59.501114 91.427 -26.9046
59.932281 91.399 -26.9320
60.366577 91.370 -26.9548
60.804020 91.340 -26.9740
61.244629 91.311 -26.9889
61.688435 91.283 -27.0020
62.135452 91.255 -27.0157
62.585712 91.228 -27.0300
63.039234 91.201 -27.0458
63.496040 91.173 -27.0630
63.956161 91.145 -27.0816
64.419617 91.117 -27.1010
64.886421 91.088 -27.1213
65.356621 91.059 -27.1400
65.830215 91.028 -27.1543
66.307251 90.997 -27.1640
66.787743 90.966 -27.1676
67.271713 90.935 -27.1660
67.759193 90.904 -27.1592
68.250206 90.874 -27.1490
68.744774 90.845 -27.1372
69.242928 90.816 -27.1240
69.744690 90.787 -27.1105
70.250084 90.758 -27.0960
70.759148 90.729 -27.0796
71.271896 90.701 -27.0630
71.788361 90.674 -27.0487
72.308571 90.646 -27.0340
72.832550 90.617 -27.0178
73.360321 90.588 -26.9990
73.891922 90.559 -26.9762
74.427376 90.531 -26.9501
74.966705 90.502 -26.9207
75.509949 90.474 -26.8881
76.057121 90.447 -26.8514
76.608261 90.420 -26.8131
77.163399 90.395 -26.7748
77.722557 90.371 -26.7381
78.285767 90.348 -26.7048
78.853058 90.325 -26.6761
79.424461 90.303 -26.6538
80.000000 90.281 -26.6380
80.579712 90.259 -26.6306
81.163628 90.236 -26.6280
81.751770 90.211 -26.6277
82.344177 90.185 -26.6280
82.940880 90.158 -26.6273
83.541901 90.130 -26.6230
84.147285 90.101 -26.6118
84.757050 90.071 -26.5950
85.371231 90.043 -26.5717
85.989868 90.015 -26.5451
86.612984 89.988 -26.5181
87.240616 89.961 -26.4911
87.872803 89.934 -26.4652
88.509560 89.907 -26.4401
89.150940 89.880 -26.4159
89.796967 89.853 -26.3920
90.447670 89.825 -26.3689
91.103088 89.797 -26.3431
91.763260 89.767 -26.3113
92.428215 89.737 -26.2741
93.097992 89.708 -26.2298
93.772614 89.679 -26.1811
94.452133 89.651 -26.1295
95.136566 89.623 -26.0761
95.825966 89.597 -26.0222
96.520363 89.571 -25.9681
97.219788 89.545 -25.9145
97.924286 89.520 -25.8621
98.633881 89.495 -25.8120
99.348625 89.471 -25.7641
100.068542 89.446 -25.7190
100.793686 89.421 -25.6751
101.524078 89.396 -25.6313
102.259766 89.370 -25.5871
103.000778 89.344 -25.5419
103.747162 89.317 -25.4951
104.498962 89.290 -25.4462
105.256203 89.264 -25.3951
106.018929 89.238 -25.3414
106.787186 89.212 -25.2861
107.561012 89.186 -25.2302
108.340446 89.160 -25.1731
109.125526 89.134 -25.1148
109.916290 89.108 -25.0551
110.712791 89.083 -24.9933
111.515060 89.058 -24.9311
112.323143 89.034 -24.8701
113.137085 89.010 -24.8101
113.956924 88.985 -24.7520
114.782700 88.960 -24.6941
115.614464 88.935 -24.6347
116.452255 88.910 -24.5751
117.296112 88.886 -24.5159
118.146095 88.862 -24.4581
119.002228 88.837 -24.4039
119.864563 88.812 -24.3501
120.733154 88.786 -24.2943
121.608040 88.759 -24.2371
122.489258 88.733 -24.1788
123.376869 88.707 -24.1191
124.270905 88.679 -24.0591
125.171425 88.651 -23.9961
126.078468 88.623 -23.9276
126.992081 88.595 -23.8552
127.912323 88.566 -23.7800
128.839233 88.537 -23.7002
129.772842 88.507 -23.6140
130.713242 88.477 -23.5222
131.660431 88.449 -23.4243
132.614502 88.421 -23.3223
133.575485 88.393 -23.2188
134.543427 88.365 -23.1122
135.518387 88.337 -23.0019
136.500412 88.308 -22.8872
137.489548 88.280 -22.7678
138.485855 88.252 -22.6423
139.489380 88.224 -22.5106
140.500168 88.195 -22.3693
141.518295 88.166 -22.2152
142.543793 88.137 -22.0484
143.576721 88.111 -21.8665
144.617142 88.087 -21.6744
145.665100 88.066 -21.4753
146.720642 88.048 -21.2726
147.783844 88.033 -21.0693
148.854752 88.021 -20.8695
149.933411 88.013 -20.6773
151.019897 88.007 -20.4954
152.114243 88.004 -20.3280
153.216522 88.002 -20.1754
154.326797 88.001 -20.0399
155.445114 88.000 -19.9203
156.571533 87.999 -19.8164
157.706116 87.998 -19.7272
158.848923 87.997 -19.6521
160.000000 87.995 -19.5891
161.159424 87.990 -19.5372
162.327255 87.984 -19.4931
163.503540 87.977 -19.4538
164.688354 87.968 -19.4181
165.881760 87.957 -19.3843
167.083801 87.945 -19.3501
168.294571 87.931 -19.3125
169.514099 87.916 -19.2711
170.742462 87.900 -19.2242
171.979736 87.883 -19.1721
173.225967 87.867 -19.1145
174.481232 87.851 -19.0521
175.745605 87.834 -18.9859
177.019119 87.818 -18.9162
178.301880 87.802 -18.8428
179.593933 87.787 -18.7682
180.895340 87.773 -18.6950
182.206177 87.760 -18.6232
183.526520 87.746 -18.5537
184.856430 87.733 -18.4861
186.195984 87.720 -18.4200
187.545227 87.707 -18.3561
188.904266 87.694 -18.2960
190.273132 87.680 -18.2381
191.651932 87.666 -18.1817
193.040726 87.651 -18.1262
194.439575 87.637 -18.0701
195.848572 87.622 -18.0152
197.267761 87.607 -17.9633
198.697250 87.591 -17.9121
200.137085 87.574 -17.8599
201.587372 87.557 -17.8071
203.048157 87.541 -17.7539
204.519531 87.524 -17.7002
206.001556 87.506 -17.6471
207.494324 87.486 -17.5911
208.997925 87.465 -17.5285
210.512405 87.444 -17.4602
212.037857 87.424 -17.3853
213.574371 87.404 -17.3062
215.122025 87.384 -17.2253
216.680893 87.364 -17.1412
218.251053 87.344 -17.0530
219.832581 87.325 -16.9623
221.425583 87.306 -16.8700
223.030121 87.288 -16.7772
224.646286 87.270 -16.6857
226.274170 87.252 -16.5942
227.913849 87.234 -16.5026
229.565399 87.215 -16.4092
231.228928 87.195 -16.3131
232.904510 87.174 -16.2123
234.592224 87.154 -16.1042
236.292191 87.134 -15.9903
238.004456 87.114 -15.8716
239.729126 87.095 -15.7473
241.466309 87.076 -15.6160
243.216080 87.058 -15.4804
244.978516 87.043 -15.3414
246.753738 87.029 -15.2024
248.541809 87.015 -15.0680
250.342850 87.002 -14.9354
252.156937 86.989 -14.8021
253.984161 86.977 -14.6713
255.824646 86.967 -14.5458
257.678467 86.957 -14.4243
259.545685 86.945 -14.3080
261.426483 86.933 -14.1933
263.320862 86.921 -14.0759
265.229004 86.909 -13.9593
267.150970 86.899 -13.8461
269.086853 86.888 -13.7343
271.036774 86.876 -13.6237
273.000824 86.863 -13.5123
274.979095 86.851 -13.3978
276.971710 86.838 -13.2814
278.978760 86.825 -13.1643
281.000336 86.812 -13.0443
283.036591 86.798 -12.9194
285.087585 86.784 -12.7904
287.153442 86.772 -12.6572
289.234283 86.760 -12.5204
291.330200 86.747 -12.3813
293.441284 86.735 -12.2374
295.567688 86.723 -12.0859
297.709503 86.712 -11.9294
299.866821 86.703 -11.7692
302.039795 86.695 -11.6065
304.228485 86.688 -11.4431
306.433044 86.683 -11.2785
308.653595 86.679 -11.1106
310.890228 86.677 -10.9454
313.143066 86.679 -10.7872
315.412231 86.683 -10.6394
317.697845 86.688 -10.5075
320.000000 86.694 -10.3903
322.318848 86.700 -10.2884
324.654510 86.705 -10.2013
327.007080 86.710 -10.1298
329.376709 86.714 -10.0712
331.763519 86.715 -10.0246
334.167603 86.714 -9.9841
336.589142 86.709 -9.9435
339.028198 86.703 -9.9021
341.484924 86.696 -9.8577
343.959473 86.688 -9.8091
346.451935 86.678 -9.7551
348.962463 86.667 -9.6942
351.491211 86.655 -9.6233
354.038239 86.643 -9.5462
356.603760 86.633 -9.4656
359.187866 86.623 -9.3813
361.790680 86.612 -9.2945
364.412354 86.600 -9.2033
367.053040 86.589 -9.1047
369.712860 86.578 -9.0023
372.391968 86.569 -8.8987
375.090454 86.560 -8.7943
377.808533 86.551 -8.6911
380.546265 86.542 -8.5873
383.303864 86.533 -8.4814
386.081451 86.524 -8.3743
388.879150 86.516 -8.2660
391.697144 86.508 -8.1573
394.535522 86.500 -8.0493
397.394501 86.492 -7.9413
400.274170 86.484 -7.8335
403.174744 86.476 -7.7243
406.096313 86.467 -7.6124
409.039062 86.458 -7.4974
412.003113 86.449 -7.3782
414.988647 86.441 -7.2564
417.995850 86.434 -7.1330
421.024811 86.427 -7.0084
424.075714 86.420 -6.8831
427.148743 86.414 -6.7574
430.244049 86.409 -6.6310
433.361786 86.404 -6.5064
436.502106 86.400 -6.3863
439.665161 86.396 -6.2694
442.851166 86.391 -6.1562
446.060242 86.386 -6.0434
449.292572 86.380 -5.9276
452.548340 86.373 -5.8094
455.827698 86.366 -5.6882
459.130798 86.360 -5.5634
462.457855 86.354 -5.4339
465.809021 86.348 -5.3004
469.184448 86.343 -5.1625
472.584381 86.339 -5.0234
476.008911 86.337 -4.8859
479.458252 86.335 -4.7514
482.932617 86.334 -4.6228
486.432159 86.333 -4.4994
489.957031 86.332 -4.3817
493.507477 86.331 -4.2683
497.083618 86.329 -4.1592
500.685699 86.326 -4.0514
504.313873 86.322 -3.9429
507.968323 86.316 -3.8314
511.649292 86.310 -3.7137
515.356934 86.303 -3.5904
519.091370 86.296 -3.4609
522.852966 86.290 -3.3255
526.641724 86.284 -3.1836
530.458008 86.279 -3.0365
534.301941 86.275 -2.8842
538.173706 86.271 -2.7295
542.073547 86.269 -2.5752
546.001648 86.268 -2.4215
549.958191 86.267 -2.2696
553.943420 86.267 -2.1195
557.957520 86.267 -1.9717
562.000671 86.267 -1.8255
566.073181 86.267 -1.6802
570.175171 86.267 -1.5355
574.306885 86.267 -1.3910
578.468567 86.267 -1.2465
582.660400 86.267 -1.1013
586.882568 86.267 -0.9555
591.135376 86.267 -0.8089
595.419006 86.267 -0.6615
599.733643 86.267 -0.5131
604.079590 86.267 -0.3635
608.456970 86.267 -0.2129
612.866089 86.267 -0.0605
617.307190 86.267 0.0944
621.780457 86.267 0.2515
626.286133 86.267 0.4103
630.824463 86.267 0.5715
635.395691 86.267 0.7353
640.000000 86.267 0.9024
644.637695 86.267 1.0732
649.309021 86.267 1.2484
654.014160 86.267 1.4287
658.753418 86.267 1.6144
663.527039 86.267 1.8058
668.335205 86.268 2.0033
673.178284 86.269 2.2078
678.056396 86.272 2.4183
682.969849 86.276 2.6349
687.918945 86.281 2.8552
692.903870 86.287 3.0767
697.924927 86.295 3.3002
702.982422 86.303 3.5261
708.076477 86.312 3.7542
713.207520 86.323 3.9849
718.375732 86.335 4.2162
723.581360 86.348 4.4455
728.824707 86.362 4.6752
734.106079 86.377 4.9078
739.425720 86.393 5.1402
744.783936 86.412 5.3711
750.180908 86.433 5.5972
755.617065 86.455 5.8142
761.092529 86.477 6.0242
766.607727 86.499 6.2272
772.162903 86.521 6.4253
777.758301 86.543 6.6198
783.394287 86.565 6.8133
789.071045 86.586 7.0079
794.789001 86.606 7.2063
800.548340 86.627 7.4124
806.349487 86.648 7.6252
812.192627 86.670 7.8464
818.078125 86.695 8.0722
824.006226 86.723 8.3011
829.977295 86.753 8.5282
835.991699 86.786 8.7492
842.049622 86.822 8.9612
848.151428 86.860 9.1597
854.297485 86.899 9.3453
860.488098 86.938 9.5170
866.723572 86.977 9.6764
873.004211 87.016 9.8242
