* Measurement data measured by REW V5.20.13
* Source: C:\Users\kurin\Desktop\Targets and Curves\Resolve\Img\Files\Andromeda_Pre2020_SPL.txt
* Format: Comma/Tab/Space delimited data
* Dated: Aug 14, 2023 2:38:30 PM
* REW Settings:
*  C-weighting compensation: Off
*  Target level: 75.0 dB
* Note: ; Measurement imported from C:\Users\kurin\Desktop\Targets and Curves\Resolve\Img\Files\Andromeda_Pre2020_SPL.txt Format: Comma/Tab/Space delimited data 623 values loaded, 5 Hz to 39,792 Hz log spaced 
* Measurement: Andromeda_Pre2020_SPL
* Smoothing: 1/48 octave
* Frequency Step: 1/96 octave
* Start Frequency: 5.000 Hz
*
* Freq(Hz) SPL(dB) Phase(degrees)
5.000000 97.098 2.3290
5.036232 97.099 2.3266
5.072727 97.100 2.3240
5.109486 97.101 2.3212
5.146511 97.103 2.3180
5.183805 97.104 2.3142
5.221369 97.106 2.3100
5.259205 97.108 2.3056
5.297316 97.110 2.3010
5.335702 97.112 2.2961
5.374367 97.114 2.2910
5.413311 97.116 2.2860
5.452538 97.118 2.2810
5.492050 97.120 2.2761
5.531847 97.122 2.2710
5.571934 97.125 2.2655
5.612310 97.127 2.2600
5.652979 97.129 2.2550
5.693943 97.131 2.2500
5.735204 97.133 2.2445
5.776763 97.135 2.2390
5.818624 97.137 2.2340
5.860788 97.139 2.2290
5.903258 97.141 2.2236
5.946035 97.143 2.2180
5.989123 97.145 2.2126
6.032523 97.147 2.2070
6.076237 97.149 2.2010
6.120268 97.151 2.1950
6.164618 97.153 2.1894
6.209289 97.156 2.1840
6.254284 97.158 2.1786
6.299605 97.160 2.1730
6.345255 97.162 2.1671
6.391235 97.164 2.1610
6.437549 97.166 2.1550
6.484198 97.168 2.1490
6.531185 97.170 2.1430
6.578513 97.172 2.1370
6.626183 97.174 2.1311
6.674199 97.176 2.1250
6.722563 97.178 2.1185
6.771278 97.180 2.1120
6.820345 97.182 2.1060
6.869768 97.185 2.1000
6.919549 97.187 2.0936
6.969691 97.189 2.0870
7.020196 97.191 2.0805
7.071068 97.193 2.0740
7.122308 97.195 2.0676
7.173919 97.197 2.0610
7.225904 97.199 2.0540
7.278266 97.201 2.0470
7.331007 97.203 2.0405
7.384131 97.205 2.0340
7.437639 97.207 2.0271
7.491535 97.210 2.0200
7.545822 97.212 2.0130
7.600502 97.214 2.0060
7.655579 97.216 1.9990
7.711054 97.218 1.9920
7.766932 97.220 1.9851
7.823214 97.222 1.9780
7.879904 97.224 1.9706
7.937005 97.226 1.9630
7.994520 97.228 1.9555
8.052452 97.230 1.9480
8.110803 97.232 1.9405
8.169578 97.234 1.9330
8.228777 97.236 1.9255
8.288406 97.239 1.9180
8.348468 97.241 1.9106
8.408964 97.243 1.9030
8.469899 97.245 1.8951
8.531276 97.247 1.8870
8.593097 97.249 1.8790
8.655366 97.251 1.8710
8.718086 97.253 1.8630
8.781260 97.255 1.8550
8.844893 97.257 1.8471
8.908987 97.259 1.8390
8.973545 97.261 1.8306
9.038571 97.263 1.8220
9.104069 97.265 1.8135
9.170040 97.268 1.8050
9.236490 97.270 1.7965
9.303422 97.272 1.7880
9.370838 97.274 1.7796
9.438744 97.276 1.7710
9.507140 97.278 1.7621
9.576033 97.280 1.7530
9.645425 97.282 1.7440
9.715320 97.284 1.7350
9.785721 97.286 1.7260
9.856632 97.288 1.7170
9.928058 97.290 1.7081
10.000000 97.293 1.6990
10.072464 97.295 1.6896
10.145453 97.297 1.6800
10.218971 97.299 1.6705
10.293022 97.301 1.6610
10.367610 97.303 1.6515
10.442738 97.305 1.6420
10.518411 97.307 1.6326
10.594631 97.309 1.6230
10.671404 97.311 1.6131
10.748734 97.313 1.6030
10.826623 97.315 1.5931
10.905077 97.317 1.5830
10.984100 97.319 1.5726
11.063695 97.322 1.5620
11.143867 97.324 1.5515
11.224621 97.326 1.5410
11.305959 97.328 1.5305
11.387886 97.330 1.5200
11.470407 97.332 1.5096
11.553527 97.334 1.4990
11.637249 97.336 1.4881
11.721577 97.338 1.4770
11.806517 97.340 1.4660
11.892071 97.342 1.4550
11.978246 97.344 1.4441
12.065045 97.346 1.4330
12.152473 97.348 1.4216
12.240536 97.351 1.4100
12.329235 97.353 1.3985
12.418578 97.355 1.3870
12.508568 97.357 1.3756
12.599211 97.359 1.3640
12.690510 97.361 1.3521
12.782471 97.363 1.3400
12.875097 97.365 1.3280
12.968395 97.367 1.3160
13.062370 97.369 1.3041
13.157025 97.371 1.2920
13.252366 97.373 1.2796
13.348398 97.376 1.2670
13.445127 97.378 1.2546
13.542556 97.380 1.2420
13.640691 97.382 1.2291
13.739536 97.384 1.2160
13.839099 97.386 1.2030
13.939383 97.388 1.1900
14.040393 97.390 1.1771
14.142136 97.392 1.1640
14.244616 97.394 1.1506
14.347837 97.396 1.1370
14.451808 97.398 1.1231
14.556532 97.400 1.1090
14.662014 97.402 1.0950
14.768262 97.405 1.0810
14.875278 97.407 1.0671
14.983070 97.409 1.0530
15.091644 97.411 1.0386
15.201005 97.413 1.0240
15.311157 97.415 1.0096
15.422109 97.417 0.9950
15.533863 97.419 0.9801
15.646428 97.421 0.9650
15.759809 97.423 0.9496
15.874010 97.425 0.9340
15.989040 97.427 0.9186
16.104904 97.429 0.9030
16.221605 97.431 0.8871
16.339155 97.434 0.8710
16.457554 97.436 0.8551
16.576813 97.438 0.8390
16.696936 97.440 0.8226
16.817928 97.442 0.8060
16.939798 97.444 0.7896
17.062551 97.446 0.7730
17.186193 97.448 0.7556
17.310732 97.450 0.7380
17.436172 97.452 0.7211
17.562521 97.454 0.7040
17.689787 97.456 0.6861
17.817974 97.459 0.6680
17.947090 97.461 0.6501
18.077143 97.463 0.6320
18.208138 97.465 0.6137
18.340080 97.467 0.5950
18.472980 97.469 0.5756
18.606844 97.471 0.5560
18.741676 97.473 0.5366
18.877487 97.475 0.5170
19.014280 97.477 0.4967
19.152065 97.479 0.4760
19.290850 97.481 0.4553
19.430639 97.483 0.4340
19.571442 97.485 0.4118
19.713264 97.487 0.3890
19.856115 97.489 0.3658
20.000000 97.491 0.3420
20.144928 97.493 0.3173
20.290907 97.495 0.2920
20.437943 97.496 0.2665
20.586044 97.497 0.2410
20.735220 97.498 0.2158
20.885475 97.499 0.1910
21.036821 97.500 0.1670
21.189262 97.500 0.1440
21.342808 97.500 0.1225
21.497467 97.500 0.1020
21.653246 97.500 0.0824
21.810154 97.500 0.0640
21.968201 97.500 0.0473
22.127390 97.500 0.0320
22.287735 97.500 0.0178
22.449242 97.500 0.0050
22.611917 97.500 -0.0061
22.775772 97.500 -0.0150
22.940815 97.500 -0.0214
23.107054 97.500 -0.0250
23.274498 97.501 -0.0254
23.443153 97.502 -0.0230
23.613033 97.504 -0.0175
23.784142 97.506 -0.0110
23.956491 97.510 -0.0045
24.130091 97.515 -0.0010
24.304947 97.522 -0.0039
24.481071 97.529 -0.0130
24.658470 97.536 -0.0295
24.837156 97.543 -0.0530
25.017136 97.550 -0.0833
25.198421 97.557 -0.1200
25.381020 97.563 -0.1638
25.564941 97.567 -0.2110
25.750195 97.570 -0.2584
25.936790 97.572 -0.3049
26.124741 97.573 -0.3479
26.314051 97.573 -0.3879
26.504732 97.574 -0.4245
26.696796 97.574 -0.4580
26.890253 97.574 -0.4883
27.085112 97.574 -0.5160
27.281382 97.574 -0.5415
27.479073 97.574 -0.5640
27.678198 97.574 -0.5826
27.878765 97.574 -0.5980
28.080786 97.574 -0.6105
28.284271 97.575 -0.6200
28.489231 97.576 -0.6256
28.695675 97.579 -0.6300
28.903616 97.583 -0.6349
29.113064 97.589 -0.6430
29.324028 97.596 -0.6579
29.536524 97.603 -0.6790
29.750557 97.610 -0.7070
29.966141 97.617 -0.7420
30.183289 97.624 -0.7847
30.402010 97.631 -0.8339
30.622314 97.637 -0.8898
30.844217 97.641 -0.9489
31.067726 97.643 -1.0084
31.292856 97.645 -1.0669
31.519617 97.646 -1.1223
31.748020 97.647 -1.1749
31.978081 97.647 -1.2243
32.209808 97.647 -1.2709
32.443211 97.647 -1.3149
32.678310 97.647 -1.3569
32.915108 97.647 -1.3976
33.153625 97.647 -1.4370
33.393871 97.647 -1.4751
33.635857 97.647 -1.5119
33.879597 97.647 -1.5471
34.125103 97.647 -1.5810
34.372387 97.647 -1.6141
34.621464 97.647 -1.6460
34.872345 97.647 -1.6765
35.125042 97.647 -1.7050
35.379574 97.647 -1.7308
35.635948 97.647 -1.7540
35.894180 97.648 -1.7743
36.154285 97.649 -1.7920
36.416275 97.650 -1.8064
36.680161 97.653 -1.8200
36.945961 97.657 -1.8342
37.213688 97.663 -1.8520
37.483353 97.670 -1.8771
37.754974 97.677 -1.9089
38.028561 97.684 -1.9483
38.304131 97.691 -1.9949
38.581699 97.698 -2.0495
38.861279 97.705 -2.1109
39.142883 97.711 -2.1796
39.426529 97.715 -2.2519
39.712231 97.717 -2.3246
40.000000 97.719 -2.3969
40.289856 97.720 -2.4664
40.581814 97.721 -2.5339
40.875885 97.721 -2.5993
41.172089 97.721 -2.6629
41.470440 97.721 -2.7250
41.770950 97.721 -2.7859
42.073643 97.721 -2.8463
42.378525 97.720 -2.9059
42.685616 97.719 -2.9652
42.994934 97.718 -3.0229
43.306492 97.716 -3.0784
43.620308 97.714 -3.1309
43.936401 97.712 -3.1789
44.254780 97.710 -3.2239
44.575470 97.709 -3.2665
44.898483 97.709 -3.3079
45.223835 97.709 -3.3498
45.551544 97.709 -3.3919
45.881630 97.710 -3.4341
46.214108 97.712 -3.4779
46.548996 97.714 -3.5253
46.886307 97.716 -3.5759
47.226067 97.718 -3.6308
47.568283 97.719 -3.6879
47.912983 97.720 -3.7456
48.260181 97.720 -3.8039
48.609894 97.721 -3.8624
48.962143 97.721 -3.9209
49.316940 97.721 -3.9790
49.674313 97.721 -4.0369
50.034271 97.721 -4.0944
50.396843 97.721 -4.1519
50.762039 97.721 -4.2097
51.129883 97.721 -4.2679
51.500389 97.721 -4.3266
51.873581 97.721 -4.3859
52.249481 97.721 -4.4456
52.628101 97.721 -4.5059
53.009464 97.721 -4.5665
53.393593 97.721 -4.6279
53.780506 97.721 -4.6904
54.170223 97.721 -4.7539
54.562763 97.721 -4.8182
54.958145 97.721 -4.8839
55.356396 97.721 -4.9514
55.757530 97.721 -5.0209
56.161572 97.721 -5.0926
56.568542 97.721 -5.1669
56.978462 97.720 -5.2445
57.391350 97.719 -5.3248
57.807232 97.717 -5.4082
58.226128 97.715 -5.4929
58.648056 97.711 -5.5782
59.073048 97.706 -5.6609
59.501114 97.699 -5.7373
59.932281 97.692 -5.8079
60.366577 97.685 -5.8718
60.804020 97.678 -5.9289
61.244629 97.671 -5.9785
61.688435 97.664 -6.0219
62.135452 97.658 -6.0591
62.585712 97.654 -6.0929
63.039234 97.651 -6.1261
63.496040 97.649 -6.1599
63.956161 97.648 -6.1969
64.419617 97.647 -6.2369
64.886421 97.647 -6.2808
65.356621 97.647 -6.3279
65.830215 97.647 -6.3781
66.307251 97.647 -6.4309
66.787743 97.647 -6.4859
67.271713 97.647 -6.5429
67.759193 97.647 -6.6015
68.250206 97.647 -6.6619
68.744774 97.647 -6.7244
69.242928 97.647 -6.7889
69.744690 97.647 -6.8549
70.250084 97.647 -6.9229
70.759148 97.647 -6.9931
71.271896 97.647 -7.0659
71.788361 97.647 -7.1413
72.308571 97.647 -7.2198
72.832550 97.647 -7.3021
73.360321 97.646 -7.3878
73.891922 97.645 -7.4774
74.427376 97.644 -7.5698
74.966705 97.641 -7.6652
75.509949 97.637 -7.7608
76.057121 97.632 -7.8546
76.608261 97.626 -7.9448
77.163399 97.619 -8.0290
77.722557 97.612 -8.1078
78.285767 97.604 -8.1814
78.853058 97.597 -8.2499
79.424461 97.591 -8.3127
80.000000 97.585 -8.3729
80.579712 97.581 -8.4324
81.163628 97.578 -8.4939
81.751770 97.575 -8.5603
82.344177 97.573 -8.6318
82.940880 97.571 -8.7104
83.541901 97.568 -8.7938
84.147285 97.564 -8.8821
84.757050 97.558 -8.9708
85.371231 97.550 -9.0558
85.989868 97.542 -9.1368
86.612984 97.534 -9.2131
87.240616 97.526 -9.2829
87.872803 97.516 -9.3441
88.509560 97.506 -9.3969
89.150940 97.498 -9.4379
89.796967 97.492 -9.4749
90.447670 97.489 -9.5141
91.103088 97.488 -9.5569
91.763260 97.487 -9.6069
92.428215 97.486 -9.6639
93.097992 97.487 -9.7279
93.772614 97.488 -9.8018
94.452133 97.490 -9.8903
95.136566 97.490 -9.9878
95.825966 97.487 -10.0917
96.520363 97.483 -10.1978
97.219788 97.477 -10.3005
97.924286 97.470 -10.4008
98.633881 97.463 -10.4979
99.348625 97.455 -10.5908
100.068542 97.446 -10.6785
100.793686 97.437 -10.7608
101.524078 97.427 -10.8370
102.259766 97.418 -10.9078
103.000778 97.410 -10.9725
103.747162 97.403 -11.0349
104.498962 97.398 -11.0983
105.256203 97.393 -11.1639
106.018929 97.388 -11.2347
106.787186 97.383 -11.3079
107.561012 97.378 -11.3800
108.340446 97.373 -11.4549
109.125526 97.370 -11.5350
109.916290 97.367 -11.6208
110.712791 97.363 -11.7154
111.515060 97.357 -11.8128
112.323143 97.349 -11.9085
113.137085 97.341 -12.0018
113.956924 97.333 -12.0894
114.782700 97.325 -12.1738
115.614464 97.317 -12.2562
116.452255 97.309 -12.3368
117.296112 97.302 -12.4160
118.146095 97.295 -12.4948
119.002228 97.288 -12.5740
119.864563 97.282 -12.6558
120.733154 97.278 -12.7429
121.608040 97.273 -12.8348
122.489258 97.267 -12.9326
123.376869 97.260 -13.0338
124.270905 97.252 -13.1359
125.171425 97.244 -13.2388
126.078468 97.235 -13.3420
126.992081 97.226 -13.4438
127.912323 97.215 -13.5427
128.839233 97.203 -13.6368
129.772842 97.192 -13.7223
130.713242 97.181 -13.8038
131.660431 97.172 -13.8847
132.614502 97.163 -13.9658
133.575485 97.154 -14.0489
134.543427 97.146 -14.1348
135.518387 97.139 -14.2248
136.500412 97.132 -14.3198
137.489548 97.125 -14.4217
138.485855 97.117 -14.5287
139.489380 97.108 -14.6407
140.500168 97.097 -14.7547
141.518295 97.085 -14.8690
142.543793 97.071 -14.9807
143.576721 97.056 -15.0869
144.617142 97.040 -15.1858
145.665100 97.023 -15.2740
146.720642 97.006 -15.3528
147.783844 96.990 -15.4214
148.854752 96.974 -15.4828
149.933411 96.960 -15.5384
151.019897 96.948 -15.5919
152.114243 96.937 -15.6470
153.216522 96.928 -15.7048
154.326797 96.920 -15.7675
155.445114 96.912 -15.8358
156.571533 96.905 -15.9118
157.706116 96.898 -15.9938
158.848923 96.890 -16.0811
160.000000 96.881 -16.1728
161.159424 96.873 -16.2678
162.327255 96.864 -16.3658
163.503540 96.853 -16.4671
164.688354 96.842 -16.5688
165.881760 96.830 -16.6671
167.083801 96.818 -16.7647
168.294571 96.807 -16.8629
169.514099 96.796 -16.9618
170.742462 96.783 -17.0631
171.979736 96.770 -17.1637
173.225967 96.756 -17.2602
174.481232 96.743 -17.3558
175.745605 96.731 -17.4528
177.019119 96.718 -17.5508
178.301880 96.704 -17.6507
179.593933 96.690 -17.7507
180.895340 96.676 -17.8488
182.206177 96.662 -17.9468
183.526520 96.647 -18.0466
184.856430 96.632 -18.1458
186.195984 96.615 -18.2429
187.545227 96.598 -18.3368
188.904266 96.581 -18.4255
190.273132 96.564 -18.5098
191.651932 96.547 -18.5888
193.040726 96.530 -18.6648
194.439575 96.515 -18.7395
195.848572 96.500 -18.8138
197.267761 96.485 -18.8890
198.697250 96.470 -18.9648
200.137085 96.455 -19.0406
201.587372 96.441 -19.1178
203.048157 96.428 -19.1979
204.519531 96.415 -19.2798
206.001556 96.400 -19.3628
207.494324 96.385 -19.4468
208.997925 96.371 -19.5308
210.512405 96.357 -19.6158
212.037857 96.343 -19.7031
213.574371 96.328 -19.7908
215.122025 96.313 -19.8772
216.680893 96.297 -19.9628
218.251053 96.282 -20.0477
219.832581 96.267 -20.1318
221.425583 96.251 -20.2146
223.030121 96.236 -20.2968
224.646286 96.222 -20.3777
226.274170 96.209 -20.4608
227.913849 96.196 -20.5496
229.565399 96.183 -20.6428
231.228928 96.170 -20.7401
232.904510 96.157 -20.8417
234.592224 96.144 -20.9481
236.292191 96.130 -21.0577
238.004456 96.115 -21.1695
239.729126 96.099 -21.2827
241.466309 96.083 -21.3964
243.216080 96.066 -21.5107
244.978516 96.049 -21.6251
246.753738 96.032 -21.7397
248.541809 96.015 -21.8535
250.342850 95.998 -21.9697
252.156937 95.981 -22.0915
253.984161 95.964 -22.2177
255.824646 95.946 -22.3483
257.678467 95.926 -22.4817
259.545685 95.905 -22.6160
261.426483 95.883 -22.7507
263.320862 95.861 -22.8850
265.229004 95.837 -23.0176
267.150970 95.812 -23.1471
269.086853 95.785 -23.2726
271.036774 95.758 -23.3927
273.000824 95.730 -23.5077
274.979095 95.702 -23.6172
276.971710 95.673 -23.7217
278.978760 95.644 -23.8210
281.000336 95.615 -23.9158
283.036591 95.587 -24.0061
285.087585 95.558 -24.0927
287.153442 95.529 -24.1763
289.234283 95.500 -24.2568
291.330200 95.471 -24.3346
293.441284 95.442 -24.4098
295.567688 95.413 -24.4824
297.709503 95.384 -24.5528
299.866821 95.355 -24.6214
302.039795 95.326 -24.6878
304.228485 95.298 -24.7513
306.433044 95.269 -24.8128
308.653595 95.240 -24.8733
310.890228 95.211 -24.9318
313.143066 95.182 -24.9878
315.412231 95.153 -25.0418
317.697845 95.124 -25.0946
320.000000 95.095 -25.1458
322.318848 95.066 -25.1957
324.654510 95.037 -25.2438
327.007080 95.009 -25.2902
329.376709 94.980 -25.3349
331.763519 94.951 -25.3781
334.167603 94.922 -25.4199
336.589142 94.893 -25.4606
339.028198 94.864 -25.4999
341.484924 94.835 -25.5371
343.959473 94.806 -25.5729
346.451935 94.777 -25.6075
348.962463 94.748 -25.6409
351.491211 94.720 -25.6730
354.038239 94.691 -25.7039
356.603760 94.662 -25.7336
359.187866 94.633 -25.7619
361.790680 94.604 -25.7886
364.412354 94.575 -25.8139
367.053040 94.546 -25.8380
369.712860 94.517 -25.8609
372.391968 94.488 -25.8831
375.090454 94.459 -25.9039
377.808533 94.431 -25.9231
380.546265 94.402 -25.9409
383.303864 94.373 -25.9575
386.081451 94.344 -25.9730
388.879150 94.315 -25.9876
391.697144 94.286 -26.0010
394.535522 94.257 -26.0126
397.394501 94.228 -26.0230
400.274170 94.199 -26.0325
403.174744 94.170 -26.0410
406.096313 94.142 -26.0481
409.039062 94.113 -26.0540
412.003113 94.084 -26.0585
414.988647 94.055 -26.0620
417.995850 94.026 -26.0646
421.024811 93.997 -26.0660
424.075714 93.968 -26.0656
427.148743 93.939 -26.0640
430.244049 93.910 -26.0616
433.361786 93.881 -26.0580
436.502106 93.853 -26.0531
439.665161 93.824 -26.0470
442.851166 93.795 -26.0396
446.060242 93.766 -26.0310
449.292572 93.737 -26.0212
452.548340 93.708 -26.0100
455.827698 93.679 -25.9976
459.130798 93.650 -25.9840
462.457855 93.621 -25.9697
465.809021 93.592 -25.9541
469.184448 93.564 -25.9367
472.584381 93.535 -25.9181
476.008911 93.506 -25.8983
479.458252 93.477 -25.8771
482.932617 93.448 -25.8542
486.432159 93.419 -25.8301
489.957031 93.390 -25.8053
493.507477 93.361 -25.7791
497.083618 93.332 -25.7508
500.685699 93.303 -25.7211
504.313873 93.275 -25.6908
507.968323 93.246 -25.6591
511.649292 93.217 -25.6254
515.356934 93.188 -25.5901
519.091370 93.159 -25.5538
522.852966 93.130 -25.5161
526.641724 93.101 -25.4769
530.458008 93.072 -25.4361
534.301941 93.043 -25.3940
538.173706 93.014 -25.3502
542.073547 92.986 -25.3045
546.001648 92.957 -25.2572
549.958191 92.928 -25.2080
553.943420 92.899 -25.1572
557.957520 92.870 -25.1050
562.000671 92.841 -25.0512
566.073181 92.812 -24.9951
570.175171 92.783 -24.9372
574.306885 92.754 -24.8776
578.468567 92.725 -24.8162
582.660400 92.697 -24.7528
586.882568 92.668 -24.6872
591.135376 92.639 -24.6194
595.419006 92.610 -24.5492
599.733643 92.581 -24.4770
604.079590 92.552 -24.4023
608.456970 92.523 -24.3247
612.866089 92.494 -24.2443
617.307190 92.465 -24.1610
621.780457 92.436 -24.0743
626.286133 92.408 -23.9835
630.824463 92.380 -23.8893
635.395691 92.352 -23.7919
640.000000 92.324 -23.6923
644.637695 92.297 -23.5913
649.309021 92.271 -23.4903
654.014160 92.246 -23.3914
658.753418 92.220 -23.2933
663.527039 92.194 -23.1961
668.335205 92.168 -23.0983
673.178284 92.141 -22.9988
678.056396 92.113 -22.8964
682.969849 92.085 -22.7901
687.918945 92.056 -22.6784
692.903870 92.028 -22.5591
697.924927 91.999 -22.4335
702.982422 91.971 -22.3019
708.076477 91.943 -22.1645
713.207520 91.915 -22.0210
718.375732 91.888 -21.8725
723.581360 91.863 -21.7195
728.824707 91.839 -21.5646
734.106079 91.815 -21.4117
739.425720 91.791 -21.2566
744.783936 91.765 -21.0962
750.180908 91.739 -20.9306
755.617065 91.716 -20.7580
761.092529 91.693 -20.5807
766.607727 91.670 -20.4009
772.162903 91.648 -20.2167
777.758301 91.626 -20.0262
783.394287 91.604 -19.8307
789.071045 91.584 -19.6302
794.789001 91.565 -19.4257
800.548340 91.546 -19.2186
806.349487 91.528 -19.0078
812.192627 91.511 -18.7929
818.078125 91.495 -18.5738
824.006226 91.479 -18.3503
829.977295 91.464 -18.1218
835.991699 91.450 -17.8867
842.049622 91.438 -17.6479
848.151428 91.428 -17.4075
854.297485 91.420 -17.1659
860.488098 91.413 -16.9237
866.723572 91.407 -16.6819
873.004211 91.403 -16.4412
879.330322 91.400 -16.2028
885.702332 91.399 -15.9691
892.120483 91.398 -15.7378
898.585144 91.397 -15.5081
905.096680 91.397 -15.2788
911.655396 91.398 -15.0494
918.261597 91.399 -14.8179
924.915710 91.400 -14.5818
931.618042 91.403 -14.3429
938.368896 91.408 -14.1013
945.168762 91.415 -13.8589
952.017822 91.423 -13.6172
958.916504 91.433 -13.3769
965.865234 91.445 -13.1384
