* Measurement data measured by REW V5.20.13
* Source: C:\Users\kurin\Desktop\Targets and Curves\Resolve\Img\Files\64 Nio_M15_SPL.txt
* Format: Comma/Tab/Space delimited data
* Dated: Aug 14, 2023 2:18:57 PM
* REW Settings:
*  C-weighting compensation: Off
*  Target level: 75.0 dB
* Note: ; Measurement imported from C:\Users\kurin\Desktop\Targets and Curves\Resolve\Img\Files\64 Nio_M15_SPL.txt Format: Comma/Tab/Space delimited data 623 values loaded, 5 Hz to 39,792 Hz log spaced 
* Measurement: 64 Nio_M15_SPL
* Smoothing: 1/48 octave
* Frequency Step: 1/96 octave
* Start Frequency: 5.000 Hz
*
* Freq(Hz) SPL(dB) Phase(degrees)
5.000000 97.529 -2.2450
5.036232 97.529 -2.2521
5.072727 97.529 -2.2600
5.109486 97.529 -2.2697
5.146511 97.529 -2.2810
5.183805 97.529 -2.2939
5.221369 97.529 -2.3080
5.259205 97.529 -2.3225
5.297316 97.529 -2.3380
5.335702 97.529 -2.3552
5.374367 97.529 -2.3730
5.413311 97.529 -2.3900
5.452538 97.529 -2.4070
5.492050 97.529 -2.4244
5.531847 97.529 -2.4420
5.571934 97.529 -2.4599
5.612310 97.529 -2.4780
5.652979 97.529 -2.4959
5.693943 97.529 -2.5140
5.735204 97.529 -2.5324
5.776763 97.529 -2.5510
5.818624 97.529 -2.5694
5.860788 97.529 -2.5880
5.903258 97.529 -2.6069
5.946035 97.529 -2.6260
5.989123 97.529 -2.6449
6.032523 97.529 -2.6640
6.076237 97.529 -2.6834
6.120268 97.529 -2.7030
6.164618 97.529 -2.7229
6.209289 97.529 -2.7430
6.254284 97.529 -2.7629
6.299605 97.529 -2.7830
6.345255 97.529 -2.8034
6.391235 97.529 -2.8240
6.437549 97.529 -2.8444
6.484198 97.529 -2.8650
6.531185 97.529 -2.8859
6.578513 97.529 -2.9070
6.626183 97.529 -2.9284
6.674199 97.529 -2.9500
6.722563 97.529 -2.9714
6.771278 97.529 -2.9930
6.820345 97.529 -3.0149
6.869768 97.529 -3.0370
6.919549 97.529 -3.0589
6.969691 97.529 -3.0810
7.020196 97.529 -3.1034
7.071068 97.529 -3.1260
7.122308 97.529 -3.1489
7.173919 97.529 -3.1720
7.225904 97.529 -3.1954
7.278266 97.529 -3.2190
7.331007 97.529 -3.2424
7.384131 97.529 -3.2660
7.437639 97.529 -3.2899
7.491535 97.529 -3.3140
7.545822 97.529 -3.3384
7.600502 97.529 -3.3630
7.655579 97.529 -3.3874
7.711054 97.529 -3.4120
7.766932 97.529 -3.4369
7.823214 97.529 -3.4620
7.879904 97.529 -3.4874
7.937005 97.529 -3.5130
7.994520 97.529 -3.5389
8.052452 97.529 -3.5650
8.110803 97.529 -3.5909
8.169578 97.529 -3.6170
8.228777 97.529 -3.6434
8.288406 97.529 -3.6700
8.348468 97.529 -3.6969
8.408964 97.529 -3.7240
8.469899 97.529 -3.7514
8.531276 97.529 -3.7790
8.593097 97.529 -3.8069
8.655366 97.529 -3.8350
8.718086 97.529 -3.8629
8.781260 97.529 -3.8910
8.844893 97.529 -3.9199
8.908987 97.529 -3.9490
8.973545 97.529 -3.9779
9.038571 97.529 -4.0070
9.104069 97.529 -4.0364
9.170040 97.529 -4.0660
9.236490 97.529 -4.0959
9.303422 97.529 -4.1260
9.370838 97.529 -4.1564
9.438744 97.529 -4.1870
9.507140 97.529 -4.2179
9.576033 97.529 -4.2490
9.645425 97.529 -4.2804
9.715320 97.529 -4.3120
9.785721 97.529 -4.3434
9.856632 97.529 -4.3750
9.928058 97.529 -4.4073
10.000000 97.529 -4.4400
10.072464 97.529 -4.4728
10.145453 97.529 -4.5060
10.218971 97.529 -4.5394
10.293022 97.529 -4.5730
10.367610 97.529 -4.6064
10.442738 97.529 -4.6400
10.518411 97.529 -4.6743
10.594631 97.529 -4.7090
10.671404 97.529 -4.7439
10.748734 97.529 -4.7790
10.826623 97.529 -4.8144
10.905077 97.529 -4.8500
10.984100 97.529 -4.8858
11.063695 97.529 -4.9220
11.143867 97.529 -4.9583
11.224621 97.529 -4.9950
11.305959 97.529 -5.0324
11.387886 97.529 -5.0700
11.470407 97.529 -5.1074
11.553527 97.529 -5.1450
11.637249 97.529 -5.1833
11.721577 97.529 -5.2220
11.806517 97.529 -5.2608
11.892071 97.529 -5.3000
11.978246 97.529 -5.3394
12.065045 97.529 -5.3790
12.152473 97.529 -5.4188
12.240536 97.529 -5.4590
12.329235 97.529 -5.4998
12.418578 97.529 -5.5410
12.508568 97.529 -5.5823
12.599211 97.529 -5.6240
12.690510 97.529 -5.6658
12.782471 97.529 -5.7080
12.875097 97.529 -5.7503
12.968395 97.529 -5.7930
13.062370 97.529 -5.8362
13.157025 97.529 -5.8800
13.252366 97.529 -5.9243
13.348398 97.529 -5.9690
13.445127 97.529 -6.0138
13.542556 97.529 -6.0589
13.640691 97.529 -6.1043
13.739536 97.529 -6.1500
13.839099 97.529 -6.1963
13.939383 97.529 -6.2430
14.040393 97.529 -6.2898
14.142136 97.529 -6.3370
14.244616 97.529 -6.3848
14.347837 97.529 -6.4330
14.451808 97.529 -6.4813
14.556532 97.529 -6.5300
14.662014 97.529 -6.5792
14.768262 97.529 -6.6289
14.875278 97.529 -6.6793
14.983070 97.529 -6.7299
15.091644 97.529 -6.7808
15.201005 97.529 -6.8320
15.311157 97.529 -6.8837
15.422109 97.529 -6.9360
15.533863 97.529 -6.9887
15.646428 97.529 -7.0420
15.759809 97.529 -7.0957
15.874010 97.529 -7.1500
15.989040 97.529 -7.2048
16.104904 97.529 -7.2600
16.221605 97.529 -7.3152
16.339155 97.529 -7.3709
16.457554 97.529 -7.4277
16.576813 97.529 -7.4850
16.696936 97.529 -7.5422
16.817928 97.529 -7.6000
16.939798 97.529 -7.6587
17.062551 97.529 -7.7179
17.186193 97.529 -7.7772
17.310732 97.529 -7.8370
17.436172 97.529 -7.8976
17.562521 97.529 -7.9590
17.689787 97.529 -8.0207
17.817974 97.529 -8.0829
17.947090 97.529 -8.1457
18.077143 97.529 -8.2090
18.208138 97.529 -8.2726
18.340080 97.529 -8.3369
18.472980 97.529 -8.4021
18.606844 97.529 -8.4680
18.741676 97.529 -8.5342
18.877487 97.529 -8.6009
19.014280 97.529 -8.6681
19.152065 97.529 -8.7359
19.290850 97.529 -8.8046
19.430639 97.529 -8.8740
19.571442 97.529 -8.9441
19.713264 97.529 -9.0149
19.856115 97.529 -9.0860
20.000000 97.529 -9.1579
20.144928 97.529 -9.2311
20.290907 97.529 -9.3049
20.437943 97.529 -9.3791
20.586044 97.529 -9.4539
20.735220 97.529 -9.5296
20.885475 97.529 -9.6059
21.036821 97.529 -9.6830
21.189262 97.529 -9.7609
21.342808 97.529 -9.8395
21.497467 97.529 -9.9189
21.653246 97.529 -9.9995
21.810154 97.529 -10.0809
21.968201 97.529 -10.1630
22.127390 97.529 -10.2459
22.287735 97.529 -10.3299
22.449242 97.529 -10.4149
22.611917 97.529 -10.5009
22.775772 97.529 -10.5879
22.940815 97.529 -10.6759
23.107054 97.529 -10.7649
23.274498 97.529 -10.8543
23.443153 97.529 -10.9449
23.613033 97.529 -11.0373
23.784142 97.529 -11.1309
23.956491 97.529 -11.2253
24.130091 97.529 -11.3209
24.304947 97.529 -11.4178
24.481071 97.529 -11.5159
24.658470 97.529 -11.6152
24.837156 97.529 -11.7159
25.017136 97.529 -11.8181
25.198421 97.529 -11.9219
25.381020 97.529 -12.0275
25.564941 97.529 -12.1349
25.750195 97.529 -12.2439
25.936790 97.529 -12.3549
26.124741 97.529 -12.4677
26.314051 97.529 -12.5828
26.504732 97.529 -12.7005
26.696796 97.529 -12.8209
26.890253 97.529 -12.9440
27.085112 97.529 -13.0709
27.281382 97.529 -13.2020
27.479073 97.529 -13.3378
27.678198 97.528 -13.4794
27.878765 97.526 -13.6258
28.080786 97.524 -13.7775
28.284271 97.521 -13.9318
28.489231 97.515 -14.0875
28.695675 97.508 -14.2408
28.903616 97.499 -14.3870
29.113064 97.490 -14.5268
29.324028 97.481 -14.6587
29.536524 97.472 -14.7839
29.750557 97.463 -14.9026
29.966141 97.454 -15.0159
30.183289 97.446 -15.1226
30.402010 97.440 -15.2289
30.622314 97.437 -15.3402
30.844217 97.435 -15.4579
31.067726 97.433 -15.5853
31.292856 97.431 -15.7218
31.519617 97.429 -15.8687
31.748020 97.425 -16.0228
31.978081 97.420 -16.1828
32.209808 97.413 -16.3448
32.443211 97.404 -16.5043
32.678310 97.394 -16.6618
32.915108 97.384 -16.8162
33.153625 97.374 -16.9678
33.393871 97.362 -17.1169
33.635857 97.350 -17.2618
33.879597 97.337 -17.4009
34.125103 97.324 -17.5348
34.372387 97.312 -17.6623
34.621464 97.301 -17.7868
34.872345 97.290 -17.9118
35.125042 97.280 -18.0368
35.379574 97.270 -18.1628
35.635948 97.260 -18.2898
35.894180 97.250 -18.4183
36.154285 97.241 -18.5488
36.416275 97.232 -18.6835
36.680161 97.222 -18.8188
36.945961 97.210 -18.9522
37.213688 97.197 -19.0828
37.483353 97.186 -19.2078
37.754974 97.176 -19.3308
38.028561 97.166 -19.4549
38.304131 97.156 -19.5798
38.581699 97.147 -19.7046
38.861279 97.139 -19.8338
39.142883 97.133 -19.9719
39.426529 97.128 -20.1188
39.712231 97.121 -20.2775
40.000000 97.113 -20.4437
40.289856 97.103 -20.6159
40.581814 97.091 -20.7897
40.875885 97.077 -20.9612
41.172089 97.061 -21.1278
41.470440 97.044 -21.2848
41.770950 97.027 -21.4348
42.073643 97.012 -21.5769
42.378525 96.997 -21.7158
42.685616 96.983 -21.8561
42.994934 96.970 -21.9968
43.306492 96.956 -22.1381
43.620308 96.943 -22.2808
43.936401 96.930 -22.4249
44.254780 96.918 -22.5728
44.575470 96.906 -22.7273
44.898483 96.893 -22.8867
45.223835 96.880 -23.0512
45.551544 96.865 -23.2178
45.881630 96.849 -23.3832
46.214108 96.832 -23.5487
46.548996 96.816 -23.7150
46.886307 96.800 -23.8807
47.226067 96.781 -24.0456
47.568283 96.761 -24.2077
47.912983 96.742 -24.3647
48.260181 96.722 -24.5177
48.609894 96.702 -24.6675
48.962143 96.681 -24.8128
49.316940 96.661 -24.9515
49.674313 96.641 -25.0878
50.034271 96.624 -25.2249
50.396843 96.607 -25.3638
50.762039 96.589 -25.5076
51.129883 96.571 -25.6528
51.500389 96.553 -25.7954
51.873581 96.535 -25.9398
52.249481 96.519 -26.0895
52.628101 96.502 -26.2427
53.009464 96.483 -26.3994
53.393593 96.463 -26.5577
53.780506 96.445 -26.7150
54.170223 96.426 -26.8737
54.562763 96.406 -27.0370
54.958145 96.385 -27.2007
55.356396 96.363 -27.3616
55.757530 96.340 -27.5198
56.161572 96.318 -27.6734
56.568542 96.295 -27.8248
56.978462 96.272 -27.9757
57.391350 96.249 -28.1247
57.807232 96.225 -28.2707
58.226128 96.201 -28.4148
58.648056 96.179 -28.5571
59.073048 96.157 -28.6998
59.501114 96.135 -28.8454
59.932281 96.113 -28.9927
60.366577 96.091 -29.1419
60.804020 96.068 -29.2917
61.244629 96.044 -29.4408
61.688435 96.020 -29.5897
62.135452 95.997 -29.7387
62.585712 95.973 -29.8877
63.039234 95.949 -30.0370
63.496040 95.924 -30.1867
63.956161 95.900 -30.3373
64.419617 95.876 -30.4887
64.886421 95.851 -30.6418
65.356621 95.825 -30.7947
65.830215 95.799 -30.9460
66.307251 95.772 -31.0957
66.787743 95.745 -31.2435
67.271713 95.718 -31.3897
67.759193 95.691 -31.5349
68.250206 95.664 -31.6787
68.744774 95.637 -31.8211
69.242928 95.609 -31.9627
69.744690 95.582 -32.1041
70.250084 95.554 -32.2457
70.759148 95.527 -32.3882
71.271896 95.499 -32.5317
71.788361 95.471 -32.6773
72.308571 95.443 -32.8227
72.832550 95.413 -32.9665
73.360321 95.383 -33.1077
73.891922 95.353 -33.2441
74.427376 95.323 -33.3787
74.966705 95.294 -33.5150
75.509949 95.264 -33.6498
76.057121 95.232 -33.7804
76.608261 95.201 -33.9087
77.163399 95.172 -34.0347
77.722557 95.144 -34.1617
78.285767 95.116 -34.2942
78.853058 95.087 -34.4297
79.424461 95.058 -34.5673
80.000000 95.028 -34.7077
80.579712 94.999 -34.8517
81.163628 94.969 -34.9987
81.751770 94.938 -35.1499
82.344177 94.905 -35.3017
82.940880 94.871 -35.4503
83.541901 94.835 -35.5967
84.147285 94.800 -35.7421
84.757050 94.764 -35.8827
85.371231 94.725 -36.0159
85.989868 94.685 -36.1398
86.612984 94.646 -36.2503
87.240616 94.607 -36.3518
87.872803 94.570 -36.4466
88.509560 94.533 -36.5368
89.150940 94.497 -36.6251
89.796967 94.462 -36.7118
90.447670 94.428 -36.7968
91.103088 94.395 -36.8838
91.763260 94.364 -36.9772
92.428215 94.333 -37.0748
93.097992 94.300 -37.1764
93.772614 94.267 -37.2798
94.452133 94.235 -37.3825
95.136566 94.202 -37.4858
95.825966 94.169 -37.5903
96.520363 94.136 -37.6958
97.219788 94.103 -37.8012
97.924286 94.070 -37.9088
98.633881 94.038 -38.0199
99.348625 94.006 -38.1358
100.068542 93.974 -38.2592
100.793686 93.940 -38.3867
101.524078 93.904 -38.5167
102.259766 93.866 -38.6457
103.000778 93.827 -38.7701
103.747162 93.787 -38.8888
104.498962 93.746 -38.9992
105.256203 93.704 -39.1018
106.018929 93.663 -39.1951
106.787186 93.622 -39.2828
107.561012 93.583 -39.3679
108.340446 93.544 -39.4509
109.125526 93.505 -39.5336
109.916290 93.466 -39.6158
110.712791 93.428 -39.6980
111.515060 93.390 -39.7798
112.323143 93.351 -39.8611
113.137085 93.312 -39.9418
113.956924 93.274 -40.0215
114.782700 93.237 -40.1018
115.614464 93.200 -40.1843
116.452255 93.162 -40.2688
117.296112 93.124 -40.3558
118.146095 93.085 -40.4448
119.002228 93.047 -40.5360
119.864563 93.008 -40.6287
120.733154 92.967 -40.7240
121.608040 92.925 -40.8168
122.489258 92.881 -40.9025
123.376869 92.837 -40.9808
124.270905 92.792 -41.0491
125.171425 92.748 -41.1099
126.078468 92.705 -41.1634
126.992081 92.663 -41.2139
127.912323 92.623 -41.2653
128.839233 92.583 -41.3189
129.772842 92.544 -41.3774
130.713242 92.506 -41.4409
131.660431 92.467 -41.5102
132.614502 92.428 -41.5848
133.575485 92.388 -41.6656
134.543427 92.346 -41.7488
135.518387 92.302 -41.8320
136.500412 92.256 -41.9118
137.489548 92.209 -41.9852
138.485855 92.161 -42.0499
139.489380 92.111 -42.1032
140.500168 92.060 -42.1439
141.518295 92.011 -42.1679
142.543793 91.962 -42.1810
143.576721 91.915 -42.1872
144.617142 91.870 -42.1880
145.665100 91.826 -42.1851
146.720642 91.783 -42.1820
147.783844 91.744 -42.1813
148.854752 91.706 -42.1870
149.933411 91.669 -42.2051
151.019897 91.632 -42.2319
152.114243 91.593 -42.2658
153.216522 91.554 -42.3059
154.326797 91.515 -42.3517
155.445114 91.475 -42.4009
156.571533 91.432 -42.4519
157.706116 91.388 -42.5019
158.848923 91.344 -42.5470
160.000000 91.298 -42.5889
161.159424 91.252 -42.6288
162.327255 91.204 -42.6649
163.503540 91.156 -42.6971
164.688354 91.107 -42.7220
165.881760 91.056 -42.7358
167.083801 91.005 -42.7390
168.294571 90.955 -42.7296
169.514099 90.905 -42.7111
170.742462 90.858 -42.6857
171.979736 90.811 -42.6551
173.225967 90.765 -42.6210
174.481232 90.720 -42.5851
175.745605 90.677 -42.5486
177.019119 90.635 -42.5141
178.301880 90.595 -42.4841
179.593933 90.555 -42.4591
180.895340 90.516 -42.4411
182.206177 90.476 -42.4280
183.526520 90.435 -42.4191
184.856430 90.394 -42.4120
186.195984 90.352 -42.4031
187.545227 90.309 -42.3950
188.904266 90.268 -42.3896
190.273132 90.227 -42.3860
191.651932 90.184 -42.3852
193.040726 90.139 -42.3840
194.439575 90.095 -42.3791
195.848572 90.050 -42.3720
197.267761 90.005 -42.3634
198.697250 89.959 -42.3520
200.137085 89.912 -42.3370
201.587372 89.865 -42.3181
203.048157 89.818 -42.2948
204.519531 89.771 -42.2671
206.001556 89.723 -42.2349
207.494324 89.675 -42.1981
208.997925 89.628 -42.1563
210.512405 89.580 -42.1101
212.037857 89.533 -42.0602
213.574371 89.485 -42.0061
215.122025 89.438 -41.9472
216.680893 89.391 -41.8842
218.251053 89.345 -41.8171
219.832581 89.299 -41.7472
221.425583 89.254 -41.6759
223.030121 89.209 -41.6022
224.646286 89.164 -41.5242
226.274170 89.120 -41.4452
227.913849 89.078 -41.3680
229.565399 89.036 -41.2922
231.228928 88.994 -41.2190
232.904510 88.951 -41.1462
234.592224 88.908 -41.0708
236.292191 88.866 -40.9962
238.004456 88.826 -40.9256
239.729126 88.785 -40.8572
241.466309 88.742 -40.7909
243.216080 88.698 -40.7242
244.978516 88.655 -40.6538
246.753738 88.611 -40.5812
248.541809 88.568 -40.5072
250.342850 88.524 -40.4312
252.156937 88.479 -40.3535
253.984161 88.434 -40.2722
255.824646 88.389 -40.1857
257.678467 88.343 -40.0942
259.545685 88.298 -39.9974
261.426483 88.253 -39.8953
263.320862 88.208 -39.7870
265.229004 88.163 -39.6743
267.150970 88.120 -39.5580
269.086853 88.078 -39.4403
271.036774 88.037 -39.3242
273.000824 87.996 -39.2093
274.979095 87.956 -39.0971
276.971710 87.915 -38.9863
278.978760 87.875 -38.8764
281.000336 87.834 -38.7673
283.036591 87.793 -38.6604
285.087585 87.751 -38.5513
287.153442 87.707 -38.4364
289.234283 87.663 -38.3153
291.330200 87.620 -38.1856
293.441284 87.578 -38.0504
295.567688 87.537 -37.9114
297.709503 87.496 -37.7704
299.866821 87.456 -37.6297
302.039795 87.417 -37.4894
304.228485 87.378 -37.3505
306.433044 87.340 -37.2124
308.653595 87.302 -37.0752
310.890228 87.263 -36.9374
313.143066 87.224 -36.7975
315.412231 87.184 -36.6554
317.697845 87.145 -36.5097
320.000000 87.107 -36.3624
322.318848 87.070 -36.2155
324.654510 87.032 -36.0675
327.007080 86.994 -35.9177
329.376709 86.955 -35.7665
331.763519 86.918 -35.6140
334.167603 86.881 -35.4595
336.589142 86.843 -35.3027
339.028198 86.805 -35.1425
341.484924 86.767 -34.9774
343.959473 86.730 -34.8085
346.451935 86.695 -34.6354
348.962463 86.660 -34.4605
351.491211 86.626 -34.2852
354.038239 86.593 -34.1125
356.603760 86.562 -33.9461
359.187866 86.531 -33.7855
361.790680 86.500 -33.6331
364.412354 86.468 -33.4844
367.053040 86.434 -33.3359
369.712860 86.400 -33.1875
372.391968 86.366 -33.0386
375.090454 86.331 -32.8874
377.808533 86.294 -32.7338
380.546265 86.256 -32.5725
383.303864 86.217 -32.3960
386.081451 86.179 -32.2115
388.879150 86.145 -32.0241
391.697144 86.111 -31.8326
394.535522 86.075 -31.6392
397.394501 86.039 -31.4396
400.274170 86.004 -31.2268
403.174744 85.971 -31.0107
406.096313 85.943 -30.7985
409.039062 85.917 -30.5906
412.003113 85.889 -30.3916
414.988647 85.860 -30.1956
417.995850 85.833 -29.9964
421.024811 85.806 -29.8006
424.075714 85.782 -29.6141
427.148743 85.757 -29.4336
430.244049 85.730 -29.2588
433.361786 85.701 -29.0856
436.502106 85.673 -28.9084
439.665161 85.644 -28.7306
442.851166 85.615 -28.5553
446.060242 85.586 -28.3776
449.292572 85.555 -28.1927
452.548340 85.523 -28.0026
455.827698 85.494 -27.8067
459.130798 85.465 -27.6076
462.457855 85.436 -27.4086
465.809021 85.406 -27.2076
469.184448 85.377 -27.0033
472.584381 85.349 -26.7976
476.008911 85.321 -26.5920
479.458252 85.294 -26.3867
482.932617 85.267 -26.1838
486.432159 85.239 -25.9797
489.957031 85.209 -25.7725
493.507477 85.179 -25.5587
497.083618 85.149 -25.3329
500.685699 85.119 -25.0988
504.313873 85.091 -24.8566
507.968323 85.064 -24.6108
511.649292 85.040 -24.3657
515.356934 85.018 -24.1218
519.091370 84.995 -23.8797
522.852966 84.973 -23.6428
526.641724 84.954 -23.4154
530.458008 84.934 -23.1947
534.301941 84.912 -22.9823
538.173706 84.887 -22.7687
542.073547 84.860 -22.5445
546.001648 84.833 -22.3108
549.958191 84.807 -22.0650
553.943420 84.781 -21.8098
557.957520 84.757 -21.5467
562.000671 84.733 -21.2769
566.073181 84.711 -21.0009
570.175171 84.690 -20.7229
574.306885 84.673 -20.4459
578.468567 84.658 -20.1739
582.660400 84.644 -19.9136
586.882568 84.629 -19.6599
591.135376 84.613 -19.4114
595.419006 84.597 -19.1639
599.733643 84.580 -18.9119
604.079590 84.562 -18.6579
608.456970 84.546 -18.4030
612.866089 84.529 -18.1449
617.307190 84.511 -17.8819
621.780457 84.493 -17.6129
626.286133 84.477 -17.3342
630.824463 84.462 -17.0509
635.395691 84.450 -16.7666
640.000000 84.439 -16.4830
644.637695 84.428 -16.2022
649.309021 84.419 -15.9259
654.014160 84.412 -15.6558
658.753418 84.406 -15.3939
663.527039 84.400 -15.1440
668.335205 84.393 -14.9018
673.178284 84.384 -14.6655
678.056396 84.374 -14.4318
682.969849 84.363 -14.1979
687.918945 84.351 -13.9608
692.903870 84.336 -13.7179
697.924927 84.320 -13.4649
702.982422 84.303 -13.1955
708.076477 84.286 -12.9131
713.207520 84.271 -12.6174
718.375732 84.258 -12.3121
723.581360 84.246 -12.0005
728.824707 84.236 -11.6831
734.106079 84.228 -11.3602
739.425720 84.222 -11.0362
744.783936 84.219 -10.7158
750.180908 84.217 -10.3991
755.617065 84.216 -10.0879
761.092529 84.215 -9.7811
766.607727 84.215 -9.4784
772.162903 84.215 -9.1791
777.758301 84.215 -8.8827
783.394287 84.215 -8.5880
789.071045 84.215 -8.2935
794.789001 84.215 -7.9991
800.548340 84.215 -7.7042
806.349487 84.215 -7.4081
812.192627 84.215 -7.1098
818.078125 84.215 -6.8091
824.006226 84.215 -6.5055
829.977295 84.215 -6.1981
835.991699 84.215 -5.8861
842.049622 84.215 -5.5682
848.151428 84.215 -5.2432
854.297485 84.215 -4.9102
860.488098 84.216 -4.5682
866.723572 84.217 -4.2163
873.004211 84.220 -3.8527
879.330322 84.224 -3.4793
