* Measurement data measured by REW V5.20.13
* Source: C:\Users\kurin\Desktop\Targets and Curves\Resolve\Img\Files\Moondrop Sparks_SPL.txt
* Format: Comma/Tab/Space delimited data
* Dated: Aug 14, 2023 6:22:04 PM
* REW Settings:
*  C-weighting compensation: Off
*  Target level: 75.0 dB
* Note: ; Measurement imported from C:\Users\kurin\Desktop\Targets and Curves\Resolve\Img\Files\Moondrop Sparks_SPL.txt Format: Comma/Tab/Space delimited data 623 values loaded, 5 Hz to 39,792 Hz log spaced 
* Measurement: Moondrop Sparks_SPL
* Smoothing: 1/48 octave
* Frequency Step: 1/96 octave
* Start Frequency: 5.000 Hz
*
* Freq(Hz) SPL(dB) Phase(degrees)
5.000000 91.174 15.5950
5.036232 91.180 15.5873
5.072727 91.186 15.5790
5.109486 91.193 15.5698
5.146511 91.201 15.5590
5.183805 91.211 15.5456
5.221369 91.221 15.5310
5.259205 91.232 15.5168
5.297316 91.243 15.5020
5.335702 91.255 15.4863
5.374367 91.267 15.4700
5.413311 91.279 15.4535
5.452538 91.292 15.4370
5.492050 91.305 15.4211
5.531847 91.317 15.4050
5.571934 91.329 15.3881
5.612310 91.341 15.3710
5.652979 91.354 15.3545
5.693943 91.366 15.3380
5.735204 91.378 15.3211
5.776763 91.390 15.3040
5.818624 91.402 15.2866
5.860788 91.415 15.2690
5.903258 91.428 15.2516
5.946035 91.440 15.2340
5.989123 91.452 15.2161
6.032523 91.464 15.1980
6.076237 91.476 15.1801
6.120268 91.489 15.1620
6.164618 91.501 15.1436
6.209289 91.513 15.1250
6.254284 91.525 15.1065
6.299605 91.538 15.0880
6.345255 91.551 15.0696
6.391235 91.563 15.0510
6.437549 91.575 15.0316
6.484198 91.587 15.0120
6.531185 91.599 14.9931
6.578513 91.612 14.9740
6.626183 91.624 14.9541
6.674199 91.636 14.9340
6.722563 91.648 14.9140
6.771278 91.661 14.8940
6.820345 91.673 14.8741
6.869768 91.685 14.8540
6.919549 91.697 14.8336
6.969691 91.710 14.8130
7.020196 91.723 14.7921
7.071068 91.735 14.7710
7.122308 91.747 14.7501
7.173919 91.759 14.7290
7.225904 91.771 14.7076
7.278266 91.784 14.6860
7.331007 91.796 14.6641
7.384131 91.808 14.6420
7.437639 91.820 14.6201
7.491535 91.833 14.5980
7.545822 91.846 14.5756
7.600502 91.858 14.5530
7.655579 91.870 14.5301
7.711054 91.882 14.5070
7.766932 91.895 14.4841
7.823214 91.907 14.4610
7.879904 91.919 14.4376
7.937005 91.931 14.4140
7.994520 91.943 14.3901
8.052452 91.956 14.3660
8.110803 91.969 14.3421
8.169578 91.981 14.3180
8.228777 91.993 14.2936
8.288406 92.005 14.2690
8.348468 92.017 14.2441
8.408964 92.030 14.2190
8.469899 92.042 14.1936
8.531276 92.054 14.1680
8.593097 92.066 14.1426
8.655366 92.079 14.1170
8.718086 92.091 14.0906
8.781260 92.103 14.0640
8.844893 92.115 14.0376
8.908987 92.128 14.0110
8.973545 92.141 13.9841
9.038571 92.153 13.9570
9.104069 92.165 13.9301
9.170040 92.177 13.9030
9.236490 92.189 13.8751
9.303422 92.202 13.8470
9.370838 92.214 13.8191
9.438744 92.226 13.7910
9.507140 92.238 13.7626
9.576033 92.251 13.7340
9.645425 92.264 13.7051
9.715320 92.276 13.6760
9.785721 92.288 13.6466
9.856632 92.300 13.6170
9.928058 92.312 13.5871
10.000000 92.325 13.5570
10.072464 92.337 13.5267
10.145453 92.349 13.4960
10.218971 92.361 13.4651
10.293022 92.374 13.4340
10.367610 92.386 13.4026
10.442738 92.398 13.3710
10.518411 92.410 13.3391
10.594631 92.423 13.3070
10.671404 92.436 13.2746
10.748734 92.448 13.2420
10.826623 92.460 13.2096
10.905077 92.472 13.1770
10.984100 92.484 13.1437
11.063695 92.497 13.1100
11.143867 92.509 13.0761
11.224621 92.521 13.0420
11.305959 92.533 13.0077
11.387886 92.546 12.9730
11.470407 92.559 12.9376
11.553527 92.571 12.9020
11.637249 92.583 12.8666
11.721577 92.595 12.8310
11.806517 92.607 12.7952
11.892071 92.620 12.7590
11.978246 92.632 12.7222
12.065045 92.644 12.6850
12.152473 92.656 12.6476
12.240536 92.669 12.6100
12.329235 92.682 12.5721
12.418578 92.694 12.5340
12.508568 92.706 12.4957
12.599211 92.718 12.4570
12.690510 92.730 12.4177
12.782471 92.743 12.3780
12.875097 92.755 12.3382
12.968395 92.767 12.2980
13.062370 92.779 12.2577
13.157025 92.792 12.2170
13.252366 92.804 12.1757
13.348398 92.816 12.1340
13.445127 92.828 12.0922
13.542556 92.841 12.0500
13.640691 92.854 12.0072
13.739536 92.866 11.9640
13.839099 92.878 11.9212
13.939383 92.890 11.8780
14.040393 92.902 11.8338
14.142136 92.915 11.7890
14.244616 92.927 11.7441
14.347837 92.939 11.6990
14.451808 92.951 11.6538
14.556532 92.964 11.6080
14.662014 92.977 11.5613
14.768262 92.989 11.5141
14.875278 93.001 11.4667
14.983070 93.013 11.4191
15.091644 93.025 11.3712
15.201005 93.038 11.3230
15.311157 93.050 11.2743
15.422109 93.062 11.2250
15.533863 93.074 11.1747
15.646428 93.087 11.1240
15.759809 93.100 11.0737
15.874010 93.112 11.0230
15.989040 93.124 10.9714
16.104904 93.136 10.9190
16.221605 93.148 10.8663
16.339155 93.161 10.8131
16.457554 93.173 10.7592
16.576813 93.185 10.7050
16.696936 93.197 10.6508
16.817928 93.210 10.5960
16.939798 93.222 10.5404
17.062551 93.234 10.4841
17.186193 93.246 10.4273
17.310732 93.259 10.3700
17.436172 93.272 10.3123
17.562521 93.284 10.2540
17.689787 93.296 10.1953
17.817974 93.308 10.1361
17.947090 93.320 10.0764
18.077143 93.333 10.0160
18.208138 93.345 9.9548
18.340080 93.357 9.8931
18.472980 93.369 9.8312
18.606844 93.382 9.7690
18.741676 93.395 9.7061
18.877487 93.407 9.6431
19.014280 93.419 9.5804
19.152065 93.431 9.5181
19.290850 93.444 9.4563
19.430639 93.457 9.3940
19.571442 93.471 9.3312
19.713264 93.485 9.2651
19.856115 93.501 9.1935
20.000000 93.517 9.1141
20.144928 93.534 9.0228
20.290907 93.550 8.9221
20.437943 93.563 8.8110
20.586044 93.574 8.6961
20.735220 93.583 8.5820
20.885475 93.589 8.4731
21.036821 93.593 8.3749
21.189262 93.596 8.2881
21.342808 93.599 8.2161
21.497467 93.603 8.1561
21.653246 93.607 8.1065
21.810154 93.613 8.0660
21.968201 93.620 8.0342
22.127390 93.630 8.0070
22.287735 93.642 7.9818
22.449242 93.657 7.9540
22.611917 93.674 7.9185
22.775772 93.692 7.8751
22.940815 93.711 7.8220
23.107054 93.732 7.7581
23.274498 93.754 7.6824
23.443153 93.777 7.5921
23.613033 93.800 7.4831
23.784142 93.822 7.3591
23.956491 93.841 7.2194
24.130091 93.857 7.0732
24.304947 93.870 6.9297
24.481071 93.881 6.7882
24.658470 93.893 6.6529
24.837156 93.905 6.5182
25.017136 93.918 6.3798
25.198421 93.930 6.2381
25.381020 93.942 6.0928
25.564941 93.953 5.9421
25.750195 93.965 5.7845
25.936790 93.976 5.6192
26.124741 93.985 5.4420
26.314051 93.991 5.2613
26.504732 93.993 5.0816
26.696796 93.991 4.9102
26.890253 93.987 4.7568
27.085112 93.982 4.6182
27.281382 93.978 4.4956
27.479073 93.975 4.3851
27.678198 93.973 4.2831
27.878765 93.971 4.1891
28.080786 93.971 4.1018
28.284271 93.971 4.0201
28.489231 93.972 3.9426
28.695675 93.975 3.8691
28.903616 93.979 3.8008
29.113064 93.985 3.7321
29.324028 93.994 3.6596
29.536524 94.006 3.5781
29.750557 94.019 3.4816
29.966141 94.034 3.3691
30.183289 94.049 3.2376
30.402010 94.063 3.0882
30.622314 94.076 2.9201
30.844217 94.086 2.7362
31.067726 94.093 2.5350
31.292856 94.096 2.3283
31.519617 94.092 2.1243
31.748020 94.083 1.9322
31.978081 94.072 1.7647
32.209808 94.059 1.6192
32.443211 94.046 1.4979
32.678310 94.033 1.3991
32.915108 94.021 1.3245
33.153625 94.012 1.2661
33.393871 94.009 1.2208
33.635857 94.010 1.1751
33.879597 94.017 1.1150
34.125103 94.027 1.0381
34.372387 94.037 0.9357
34.621464 94.046 0.8122
34.872345 94.054 0.6670
35.125042 94.060 0.5072
35.379574 94.061 0.3365
35.635948 94.057 0.1652
35.894180 94.049 0.0041
36.154285 94.039 -0.1448
36.416275 94.027 -0.2758
36.680161 94.015 -0.3898
36.945961 94.003 -0.4840
37.213688 93.992 -0.5639
37.483353 93.984 -0.6322
37.754974 93.978 -0.6949
38.028561 93.974 -0.7587
38.304131 93.972 -0.8239
38.581699 93.971 -0.8935
38.861279 93.971 -0.9669
39.142883 93.971 -1.0450
39.426529 93.971 -1.1269
39.712231 93.971 -1.2121
40.000000 93.971 -1.2999
40.289856 93.971 -1.3894
40.581814 93.971 -1.4809
40.875885 93.971 -1.5741
41.172089 93.971 -1.6689
41.470440 93.971 -1.7647
41.770950 93.971 -1.8618
42.073643 93.971 -1.9607
42.378525 93.971 -2.0609
42.685616 93.971 -2.1617
42.994934 93.971 -2.2639
43.306492 93.971 -2.3677
43.620308 93.971 -2.4728
43.936401 93.971 -2.5791
44.254780 93.971 -2.6858
44.575470 93.971 -2.7920
44.898483 93.971 -2.8988
45.223835 93.972 -3.0061
45.551544 93.974 -3.1168
45.881630 93.977 -3.2323
46.214108 93.981 -3.3568
46.548996 93.987 -3.4939
46.886307 93.993 -3.6467
47.226067 93.999 -3.8225
47.568283 94.002 -4.0127
47.912983 94.000 -4.2147
48.260181 93.994 -4.4187
48.609894 93.984 -4.6128
48.962143 93.973 -4.8007
49.316940 93.962 -4.9827
49.674313 93.950 -5.1567
50.034271 93.933 -5.3216
50.396843 93.916 -5.4758
50.762039 93.901 -5.6125
51.129883 93.887 -5.7468
51.500389 93.878 -5.8934
51.873581 93.868 -6.0467
52.249481 93.852 -6.2100
52.628101 93.833 -6.3707
53.009464 93.812 -6.5164
53.393593 93.789 -6.6498
53.780506 93.766 -6.7710
54.170223 93.743 -6.8758
54.562763 93.717 -6.9580
54.958145 93.692 -7.0239
55.356396 93.674 -7.0727
55.757530 93.659 -7.1199
56.161572 93.648 -7.1819
56.568542 93.638 -7.2549
56.978462 93.626 -7.3417
57.391350 93.614 -7.4388
57.807232 93.602 -7.5454
58.226128 93.587 -7.6568
58.648056 93.568 -7.7728
59.073048 93.546 -7.8798
59.501114 93.518 -7.9651
59.932281 93.488 -8.0259
60.366577 93.460 -8.0517
60.804020 93.434 -8.0540
61.244629 93.413 -8.0383
61.688435 93.396 -8.0121
62.135452 93.384 -7.9813
62.585712 93.376 -7.9560
63.039234 93.374 -7.9456
63.496040 93.376 -7.9580
63.956161 93.381 -8.0066
64.419617 93.385 -8.0848
64.886421 93.385 -8.1968
65.356621 93.379 -8.3228
65.830215 93.365 -8.4458
66.307251 93.347 -8.5608
66.787743 93.328 -8.6548
67.271713 93.309 -8.7339
67.759193 93.290 -8.8008
68.250206 93.270 -8.8529
68.744774 93.249 -8.8862
69.242928 93.230 -8.9080
69.744690 93.217 -8.9214
70.250084 93.206 -8.9350
70.759148 93.198 -8.9597
71.271896 93.190 -8.9909
71.788361 93.181 -9.0279
72.308571 93.173 -9.0699
72.832550 93.166 -9.1161
73.360321 93.159 -9.1659
73.891922 93.150 -9.2188
74.427376 93.141 -9.2739
74.966705 93.134 -9.3278
75.509949 93.128 -9.3869
76.057121 93.124 -9.4566
76.608261 93.120 -9.5358
77.163399 93.114 -9.6269
77.722557 93.106 -9.7248
78.285767 93.097 -9.8246
78.853058 93.087 -9.9278
79.424461 93.077 -10.0362
80.000000 93.065 -10.1438
80.579712 93.049 -10.2456
81.163628 93.032 -10.3398
81.751770 93.016 -10.4204
82.344177 93.002 -10.4949
82.940880 92.989 -10.5673
83.541901 92.978 -10.6418
84.147285 92.969 -10.7235
84.757050 92.961 -10.8138
85.371231 92.953 -10.9151
85.989868 92.945 -11.0297
86.612984 92.938 -11.1601
87.240616 92.931 -11.3087
87.872803 92.922 -11.4839
88.509560 92.908 -11.6706
89.150940 92.886 -11.8590
89.796967 92.859 -12.0406
90.447670 92.830 -12.2003
91.103088 92.800 -12.3487
91.763260 92.773 -12.4917
92.428215 92.744 -12.6287
93.097992 92.711 -12.7628
93.772614 92.675 -12.8888
94.452133 92.640 -13.0002
95.136566 92.604 -13.1038
95.825966 92.569 -13.2065
96.520363 92.533 -13.3018
97.219788 92.492 -13.3881
97.924286 92.448 -13.4579
98.633881 92.403 -13.5011
99.348625 92.358 -13.5230
100.068542 92.316 -13.5256
100.793686 92.274 -13.5081
101.524078 92.231 -13.4662
102.259766 92.191 -13.4111
103.000778 92.161 -13.3504
103.747162 92.134 -13.2911
104.498962 92.106 -13.2459
105.256203 92.079 -13.2061
106.018929 92.052 -13.1634
106.787186 92.027 -13.1291
107.561012 92.008 -13.1145
108.340446 91.988 -13.1110
109.125526 91.958 -13.1168
109.916290 91.926 -13.1220
110.712791 91.896 -13.1122
111.515060 91.867 -13.0990
112.323143 91.839 -13.0909
113.137085 91.809 -13.0830
113.956924 91.776 -13.0743
114.782700 91.742 -13.0620
115.614464 91.708 -13.0441
116.452255 91.673 -13.0181
117.296112 91.635 -12.9828
118.146095 91.595 -12.9321
119.002228 91.553 -12.8596
119.864563 91.511 -12.7653
120.733154 91.471 -12.6449
121.608040 91.433 -12.5053
122.489258 91.399 -12.3492
123.376869 91.369 -12.1844
124.270905 91.343 -12.0187
125.171425 91.321 -11.8553
126.078468 91.301 -11.6980
126.992081 91.284 -11.5533
127.912323 91.272 -11.4309
128.839233 91.259 -11.3252
129.772842 91.241 -11.2370
130.713242 91.221 -11.1562
131.660431 91.200 -11.0758
132.614502 91.177 -10.9873
133.575485 91.148 -10.8788
134.543427 91.119 -10.7523
135.518387 91.096 -10.6015
136.500412 91.076 -10.4393
137.489548 91.060 -10.2742
138.485855 91.047 -10.1124
139.489380 91.039 -9.9600
140.500168 91.034 -9.8253
141.518295 91.033 -9.7187
142.543793 91.034 -9.6402
143.576721 91.033 -9.5957
144.617142 91.030 -9.5770
145.665100 91.023 -9.5800
146.720642 91.011 -9.5979
147.783844 90.995 -9.6267
148.854752 90.974 -9.6549
149.933411 90.945 -9.6686
151.019897 90.913 -9.6710
152.114243 90.884 -9.6586
153.216522 90.854 -9.6381
154.326797 90.820 -9.6207
155.445114 90.782 -9.5891
156.571533 90.736 -9.5293
157.706116 90.688 -9.4412
158.848923 90.643 -9.3193
160.000000 90.597 -9.1664
161.159424 90.549 -8.9877
162.327255 90.501 -8.7715
163.503540 90.452 -8.5026
164.688354 90.408 -8.1977
165.881760 90.378 -7.8630
167.083801 90.355 -7.5149
168.294571 90.338 -7.1709
169.514099 90.327 -6.8338
170.742462 90.323 -6.5088
171.979736 90.325 -6.2068
173.225967 90.333 -5.9430
174.481232 90.343 -5.7095
175.745605 90.348 -5.5066
177.019119 90.352 -5.3244
178.301880 90.356 -5.1513
179.593933 90.361 -4.9924
180.895340 90.366 -4.8501
182.206177 90.370 -4.7213
183.526520 90.371 -4.6039
184.856430 90.371 -4.4972
186.195984 90.372 -4.3990
187.545227 90.372 -4.3122
188.904266 90.370 -4.2415
190.273132 90.366 -4.1791
191.651932 90.357 -4.1200
193.040726 90.344 -4.0612
194.439575 90.331 -3.9999
195.848572 90.314 -3.9302
197.267761 90.291 -3.8477
198.697250 90.265 -3.7443
200.137085 90.238 -3.6031
201.587372 90.213 -3.4454
203.048157 90.199 -3.2887
204.519531 90.185 -3.1275
206.001556 90.162 -2.9671
207.494324 90.136 -2.7915
208.997925 90.113 -2.5786
210.512405 90.093 -2.3515
212.037857 90.082 -2.1262
213.574371 90.074 -1.9025
215.122025 90.061 -1.6863
216.680893 90.050 -1.4756
218.251053 90.044 -1.2675
219.832581 90.040 -1.0696
221.425583 90.034 -0.8930
223.030121 90.026 -0.7234
224.646286 90.012 -0.5511
226.274170 89.995 -0.3725
227.913849 89.979 -0.1830
229.565399 89.961 0.0235
231.228928 89.937 0.2533
232.904510 89.913 0.5102
234.592224 89.893 0.8049
236.292191 89.876 1.1221
238.004456 89.866 1.4509
239.729126 89.860 1.7881
241.466309 89.856 2.1270
243.216080 89.856 2.4671
244.978516 89.860 2.8073
246.753738 89.868 3.1430
248.541809 89.880 3.4721
250.342850 89.895 3.7861
252.156937 89.916 4.0763
253.984161 89.938 4.3423
255.824646 89.959 4.5784
257.678467 89.979 4.7925
259.545685 89.996 4.9875
261.426483 90.009 5.1735
263.320862 90.018 5.3596
265.229004 90.024 5.5525
267.150970 90.027 5.7622
269.086853 90.030 5.9883
271.036774 90.033 6.2344
273.000824 90.038 6.4982
274.979095 90.045 6.7796
276.971710 90.055 7.0751
278.978760 90.068 7.3849
281.000336 90.087 7.6972
283.036591 90.114 8.0025
285.087585 90.145 8.2931
287.153442 90.179 8.5559
289.234283 90.214 8.7974
291.330200 90.248 9.0198
293.441284 90.283 9.2235
295.567688 90.320 9.4113
297.709503 90.358 9.5776
299.866821 90.397 9.7146
302.039795 90.433 9.8307
304.228485 90.464 9.9250
306.433044 90.490 10.0167
308.653595 90.509 10.1265
310.890228 90.528 10.2496
313.143066 90.551 10.3923
315.412231 90.577 10.5426
317.697845 90.605 10.6903
320.000000 90.635 10.8356
322.318848 90.666 10.9781
324.654510 90.701 11.1096
327.007080 90.741 11.2234
329.376709 90.783 11.3138
331.763519 90.824 11.3714
334.167603 90.864 11.4000
336.589142 90.903 11.3986
339.028198 90.939 11.3721
341.484924 90.970 11.3203
343.959473 90.995 11.2572
346.451935 91.012 11.1937
348.962463 91.024 11.1391
351.491211 91.031 11.1053
354.038239 91.035 11.0950
356.603760 91.036 11.1170
359.187866 91.037 11.1658
361.790680 91.042 11.2408
364.412354 91.050 11.3357
367.053040 91.059 11.4463
369.712860 91.072 11.5656
372.391968 91.091 11.6903
375.090454 91.116 11.8057
377.808533 91.146 11.8977
380.546265 91.179 11.9619
383.303864 91.212 11.9855
386.081451 91.243 11.9791
388.879150 91.269 11.9450
391.697144 91.291 11.8942
394.535522 91.307 11.8367
397.394501 91.319 11.7772
400.274170 91.327 11.7197
403.174744 91.330 11.6751
406.096313 91.326 11.6517
409.039062 91.319 11.6609
412.003113 91.308 11.7234
414.988647 91.301 11.8196
417.995850 91.305 11.9425
421.024811 91.315 12.0746
424.075714 91.328 12.1949
427.148743 91.345 12.3077
430.244049 91.363 12.4132
433.361786 91.383 12.5027
436.502106 91.409 12.5661
439.665161 91.435 12.6069
442.851166 91.455 12.6195
446.060242 91.472 12.6210
449.292572 91.483 12.6244
452.548340 91.492 12.6359
455.827698 91.498 12.6673
459.130798 91.505 12.7148
462.457855 91.514 12.7848
465.809021 91.527 12.8588
469.184448 91.548 12.9216
472.584381 91.572 12.9699
476.008911 91.594 12.9939
479.458252 91.615 12.9970
482.932617 91.637 12.9806
486.432159 91.658 12.9412
489.957031 91.677 12.8701
493.507477 91.691 12.7833
497.083618 91.694 12.6892
500.685699 91.691 12.6013
504.313873 91.683 12.5347
507.968323 91.670 12.4931
511.649292 91.653 12.4838
515.356934 91.634 12.5108
519.091370 91.614 12.5823
522.852966 91.595 12.6926
526.641724 91.580 12.8420
530.458008 91.569 13.0204
534.301941 91.565 13.2212
538.173706 91.567 13.4333
542.073547 91.577 13.6462
546.001648 91.594 13.8503
549.958191 91.616 14.0351
553.943420 91.643 14.1925
557.957520 91.674 14.3105
562.000671 91.706 14.3908
566.073181 91.736 14.4284
570.175171 91.763 14.4320
574.306885 91.785 14.4026
578.468567 91.800 14.3592
582.660400 91.804 14.3164
586.882568 91.802 14.2891
591.135376 91.794 14.2982
595.419006 91.784 14.3398
599.733643 91.775 14.4182
604.079590 91.768 14.5286
608.456970 91.762 14.6688
612.866089 91.759 14.8354
617.307190 91.760 15.0315
621.780457 91.769 15.2343
626.286133 91.791 15.4263
630.824463 91.820 15.5945
635.395691 91.850 15.7162
640.000000 91.881 15.8028
644.637695 91.909 15.8564
649.309021 91.934 15.8830
654.014160 91.956 15.8848
658.753418 91.974 15.8740
663.527039 91.983 15.8613
668.335205 91.988 15.8530
673.178284 91.991 15.8573
678.056396 91.991 15.8799
682.969849 91.985 15.9267
687.918945 91.976 16.0047
692.903870 91.967 16.1278
697.924927 91.962 16.2804
702.982422 91.965 16.4549
708.076477 91.974 16.6413
713.207520 91.985 16.8279
718.375732 92.001 17.0124
723.581360 92.022 17.1915
728.824707 92.047 17.3564
734.106079 92.076 17.4975
739.425720 92.108 17.6136
744.783936 92.139 17.7000
750.180908 92.170 17.7588
755.617065 92.201 17.7879
761.092529 92.230 17.7960
766.607727 92.251 17.7890
772.162903 92.269 17.7731
777.758301 92.286 17.7562
783.394287 92.300 17.7381
789.071045 92.311 17.7204
794.789001 92.319 17.7050
800.548340 92.326 17.6948
806.349487 92.331 17.6880
812.192627 92.335 17.6831
818.078125 92.336 17.6830
824.006226 92.335 17.6896
829.977295 92.331 17.7049
835.991699 92.326 17.7306
842.049622 92.318 17.7698
848.151428 92.308 17.8259
854.297485 92.296 17.8997
860.488098 92.284 17.9931
866.723572 92.272 18.1065
873.004211 92.258 18.2376
879.330322 92.243 18.3964
885.702332 92.225 18.5976
892.120483 92.211 18.8251
898.585144 92.209 19.0708
905.096680 92.212 19.3251
911.655396 92.213 19.5723
918.261597 92.216 19.8221
924.915710 92.221 20.0816
931.618042 92.228 20.3421
938.368896 92.240 20.5961
945.168762 92.254 20.8461
952.017822 92.265 21.0878
958.916504 92.275 21.3330
965.865234 92.283 21.5924
972.864319 92.292 21.8660
979.914062 92.303 22.1580
987.014954 92.317 22.4658
994.167236 92.333 22.7915
1001.371399 92.355 23.1248
1008.627747 92.385 23.4586
1015.936646 92.420 23.7856
