* Measurement data measured by REW V5.20.13
* Source: C:\Users\kurin\Desktop\Targets and Curves\Resolve\Img\Files\64 Nio_M20_SPL.txt
* Format: Comma/Tab/Space delimited data
* Dated: Aug 14, 2023 2:20:57 PM
* REW Settings:
*  C-weighting compensation: Off
*  Target level: 75.0 dB
* Note: ; Measurement imported from C:\Users\kurin\Desktop\Targets and Curves\Resolve\Img\Files\64 Nio_M20_SPL.txt Format: Comma/Tab/Space delimited data 623 values loaded, 5 Hz to 39,792 Hz log spaced 
* Measurement: 64 Nio_M20_SPL
* Smoothing: 1/48 octave
* Frequency Step: 1/96 octave
* Start Frequency: 5.000 Hz
*
* Freq(Hz) SPL(dB) Phase(degrees)
5.000000 99.501 -8.6860
5.036232 99.499 -8.6917
5.072727 99.497 -8.6980
5.109486 99.494 -8.7054
5.146511 99.491 -8.7140
5.183805 99.487 -8.7244
5.221369 99.483 -8.7360
5.259205 99.479 -8.7481
5.297316 99.475 -8.7610
5.335702 99.470 -8.7748
5.374367 99.465 -8.7890
5.413311 99.461 -8.8029
5.452538 99.456 -8.8170
5.492050 99.451 -8.8319
5.531847 99.446 -8.8470
5.571934 99.441 -8.8615
5.612310 99.437 -8.8760
5.652979 99.432 -8.8909
5.693943 99.427 -8.9060
5.735204 99.423 -8.9209
5.776763 99.418 -8.9360
5.818624 99.413 -8.9514
5.860788 99.408 -8.9670
5.903258 99.404 -8.9829
5.946035 99.399 -8.9990
5.989123 99.394 -9.0150
6.032523 99.389 -9.0310
6.076237 99.384 -9.0469
6.120268 99.380 -9.0630
6.164618 99.375 -9.0794
6.209289 99.370 -9.0960
6.254284 99.366 -9.1124
6.299605 99.361 -9.1290
6.345255 99.356 -9.1459
6.391235 99.351 -9.1630
6.437549 99.347 -9.1799
6.484198 99.342 -9.1970
6.531185 99.337 -9.2144
6.578513 99.332 -9.2320
6.626183 99.327 -9.2494
6.674199 99.323 -9.2670
6.722563 99.318 -9.2849
6.771278 99.313 -9.3030
6.820345 99.309 -9.3209
6.869768 99.304 -9.3390
6.919549 99.299 -9.3574
6.969691 99.294 -9.3760
7.020196 99.290 -9.3949
7.071068 99.285 -9.4140
7.122308 99.280 -9.4329
7.173919 99.275 -9.4520
7.225904 99.271 -9.4714
7.278266 99.266 -9.4910
7.331007 99.261 -9.5104
7.384131 99.256 -9.5300
7.437639 99.252 -9.5499
7.491535 99.247 -9.5700
7.545822 99.242 -9.5899
7.600502 99.237 -9.6100
7.655579 99.232 -9.6304
7.711054 99.228 -9.6510
7.766932 99.223 -9.6719
7.823214 99.218 -9.6930
7.879904 99.214 -9.7139
7.937005 99.209 -9.7350
7.994520 99.204 -9.7564
8.052452 99.199 -9.7780
8.110803 99.195 -9.7994
8.169578 99.190 -9.8210
8.228777 99.185 -9.8429
8.288406 99.180 -9.8650
8.348468 99.175 -9.8874
8.408964 99.171 -9.9100
8.469899 99.166 -9.9329
8.531276 99.161 -9.9560
8.593097 99.157 -9.9789
8.655366 99.152 -10.0020
8.718086 99.147 -10.0254
8.781260 99.142 -10.0490
8.844893 99.138 -10.0724
8.908987 99.133 -10.0960
8.973545 99.128 -10.1204
9.038571 99.123 -10.1450
9.104069 99.118 -10.1695
9.170040 99.114 -10.1940
9.236490 99.110 -10.2184
9.303422 99.105 -10.2430
9.370838 99.100 -10.2684
9.438744 99.095 -10.2940
9.507140 99.090 -10.3194
9.576033 99.086 -10.3450
9.645425 99.081 -10.3709
9.715320 99.076 -10.3970
9.785721 99.072 -10.4234
9.856632 99.067 -10.4500
9.928058 99.062 -10.4769
10.000000 99.057 -10.5040
10.072464 99.052 -10.5309
10.145453 99.048 -10.5580
10.218971 99.043 -10.5854
10.293022 99.038 -10.6130
10.367610 99.034 -10.6409
10.442738 99.029 -10.6690
10.518411 99.024 -10.6974
10.594631 99.019 -10.7260
10.671404 99.015 -10.7549
10.748734 99.010 -10.7840
10.826623 99.005 -10.8134
10.905077 99.000 -10.8430
10.984100 98.995 -10.8729
11.063695 98.991 -10.9030
11.143867 98.986 -10.9329
11.224621 98.981 -10.9630
11.305959 98.977 -10.9933
11.387886 98.972 -11.0240
11.470407 98.967 -11.0554
11.553527 98.962 -11.0870
11.637249 98.958 -11.1184
11.721577 98.953 -11.1500
11.806517 98.948 -11.1823
11.892071 98.943 -11.2150
11.978246 98.938 -11.2474
12.065045 98.934 -11.2800
12.152473 98.929 -11.3129
12.240536 98.924 -11.3460
12.329235 98.920 -11.3793
12.418578 98.915 -11.4130
12.508568 98.910 -11.4474
12.599211 98.905 -11.4820
12.690510 98.901 -11.5163
12.782471 98.896 -11.5510
12.875097 98.891 -11.5863
12.968395 98.886 -11.6220
13.062370 98.882 -11.6574
13.157025 98.877 -11.6930
13.252366 98.872 -11.7293
13.348398 98.867 -11.7660
13.445127 98.863 -11.8029
13.542556 98.858 -11.8400
13.640691 98.853 -11.8768
13.739536 98.848 -11.9140
13.839099 98.843 -11.9523
13.939383 98.839 -11.9910
14.040393 98.834 -12.0294
14.142136 98.829 -12.0680
14.244616 98.825 -12.1068
14.347837 98.820 -12.1460
14.451808 98.815 -12.1858
14.556532 98.810 -12.2260
14.662014 98.806 -12.2663
14.768262 98.801 -12.3070
14.875278 98.796 -12.3478
14.983070 98.791 -12.3890
15.091644 98.786 -12.4308
15.201005 98.782 -12.4730
15.311157 98.777 -12.5148
15.422109 98.772 -12.5570
15.533863 98.768 -12.6003
15.646428 98.763 -12.6440
15.759809 98.758 -12.6873
15.874010 98.753 -12.7310
15.989040 98.749 -12.7753
16.104904 98.744 -12.8200
16.221605 98.739 -12.8648
16.339155 98.734 -12.9099
16.457554 98.730 -12.9558
16.576813 98.725 -13.0020
16.696936 98.720 -13.0483
16.817928 98.715 -13.0950
16.939798 98.711 -13.1418
17.062551 98.706 -13.1889
17.186193 98.701 -13.2368
17.310732 98.696 -13.2850
17.436172 98.691 -13.3333
17.562521 98.687 -13.3820
17.689787 98.682 -13.4308
17.817974 98.677 -13.4799
17.947090 98.673 -13.5293
18.077143 98.668 -13.5790
18.208138 98.663 -13.6293
18.340080 98.658 -13.6799
18.472980 98.654 -13.7303
18.606844 98.649 -13.7810
18.741676 98.644 -13.8324
18.877487 98.639 -13.8839
19.014280 98.635 -13.9350
19.152065 98.630 -13.9859
19.290850 98.625 -14.0371
19.430639 98.620 -14.0880
19.571442 98.615 -14.1382
19.713264 98.611 -14.1879
19.856115 98.606 -14.2372
20.000000 98.602 -14.2860
20.144928 98.598 -14.3341
20.290907 98.595 -14.3820
20.437943 98.592 -14.4290
20.586044 98.589 -14.4770
20.735220 98.588 -14.5271
20.885475 98.587 -14.5809
21.036821 98.587 -14.6395
21.189262 98.588 -14.7059
21.342808 98.590 -14.7835
21.497467 98.592 -14.8719
21.653246 98.593 -14.9744
21.810154 98.591 -15.0839
21.968201 98.586 -15.1957
22.127390 98.578 -15.3059
22.287735 98.569 -15.4085
22.449242 98.559 -15.5039
22.611917 98.548 -15.5919
22.775772 98.536 -15.6689
22.940815 98.523 -15.7297
23.107054 98.511 -15.7789
23.274498 98.502 -15.8175
23.443153 98.496 -15.8520
23.613033 98.492 -15.8889
23.784142 98.489 -15.9290
23.956491 98.488 -15.9748
24.130091 98.487 -16.0269
24.304947 98.487 -16.0872
24.481071 98.487 -16.1539
24.658470 98.487 -16.2263
24.837156 98.487 -16.3039
25.017136 98.487 -16.3856
25.198421 98.487 -16.4719
25.381020 98.487 -16.5630
25.564941 98.487 -16.6589
25.750195 98.487 -16.7596
25.936790 98.487 -16.8659
26.124741 98.487 -16.9783
26.314051 98.486 -17.0968
26.504732 98.485 -17.2220
26.696796 98.483 -17.3528
26.890253 98.480 -17.4895
27.085112 98.476 -17.6288
27.281382 98.469 -17.7688
27.479073 98.461 -17.9068
27.678198 98.452 -18.0393
27.878765 98.443 -18.1678
28.080786 98.434 -18.2925
28.284271 98.425 -18.4138
28.489231 98.415 -18.5320
28.695675 98.405 -18.6488
28.903616 98.397 -18.7662
29.113064 98.389 -18.8848
29.324028 98.381 -19.0068
29.536524 98.372 -19.1299
29.750557 98.362 -19.2519
29.966141 98.352 -19.3739
30.183289 98.343 -19.4959
30.402010 98.333 -19.6179
30.622314 98.323 -19.7402
30.844217 98.312 -19.8619
31.067726 98.301 -19.9813
31.292856 98.291 -20.1008
31.519617 98.281 -20.2219
31.748020 98.271 -20.3448
31.978081 98.261 -20.4704
32.209808 98.250 -20.5988
32.443211 98.240 -20.7307
32.678310 98.229 -20.8658
32.915108 98.218 -21.0051
33.153625 98.205 -21.1458
33.393871 98.190 -21.2869
33.635857 98.174 -21.4248
33.879597 98.157 -21.5563
34.125103 98.138 -21.6798
34.372387 98.119 -21.7923
34.621464 98.099 -21.8949
34.872345 98.081 -21.9871
35.125042 98.063 -22.0699
35.379574 98.046 -22.1422
35.635948 98.031 -22.2099
35.894180 98.020 -22.2772
36.154285 98.012 -22.3489
36.416275 98.005 -22.4312
36.680161 97.999 -22.5238
36.945961 97.994 -22.6292
37.213688 97.988 -22.7458
37.483353 97.982 -22.8729
37.754974 97.975 -23.0108
38.028561 97.968 -23.1621
38.304131 97.958 -23.3188
38.581699 97.944 -23.4756
38.861279 97.927 -23.6268
39.142883 97.910 -23.7614
39.426529 97.893 -23.8898
39.712231 97.881 -24.0198
40.000000 97.868 -24.1488
40.289856 97.851 -24.2781
40.581814 97.833 -24.4038
40.875885 97.818 -24.5185
41.172089 97.804 -24.6348
41.470440 97.795 -24.7658
41.770950 97.785 -24.9038
42.073643 97.769 -25.0483
42.378525 97.751 -25.1908
42.685616 97.734 -25.3190
42.994934 97.718 -25.4438
43.306492 97.705 -25.5722
43.620308 97.692 -25.7038
43.936401 97.677 -25.8409
44.254780 97.662 -25.9818
44.575470 97.649 -26.1231
44.898483 97.636 -26.2718
45.223835 97.624 -26.4359
45.551544 97.611 -26.6078
45.881630 97.592 -26.7855
46.214108 97.570 -26.9597
46.548996 97.546 -27.1194
46.886307 97.521 -27.2678
47.226067 97.497 -27.4035
47.568283 97.474 -27.5298
47.912983 97.451 -27.6481
48.260181 97.430 -27.7618
48.609894 97.411 -27.8736
48.962143 97.393 -27.9878
49.316940 97.378 -28.1092
49.674313 97.363 -28.2388
50.034271 97.348 -28.3798
50.396843 97.333 -28.5308
50.762039 97.317 -28.6934
51.129883 97.299 -28.8617
51.500389 97.278 -29.0320
51.873581 97.255 -29.1987
52.249481 97.229 -29.3540
52.628101 97.203 -29.5008
53.009464 97.179 -29.6372
53.393593 97.156 -29.7698
53.780506 97.134 -29.9047
54.170223 97.113 -30.0408
54.562763 97.090 -30.1783
54.958145 97.068 -30.3188
55.356396 97.049 -30.4630
55.757530 97.029 -30.6128
56.161572 97.007 -30.7720
56.568542 96.984 -30.9347
56.978462 96.959 -31.0965
57.391350 96.933 -31.2567
57.807232 96.906 -31.4143
58.226128 96.878 -31.5667
58.648056 96.849 -31.7105
59.073048 96.819 -31.8478
59.501114 96.791 -31.9778
59.932281 96.764 -32.1058
60.366577 96.738 -32.2381
60.804020 96.711 -32.3708
61.244629 96.683 -32.5015
61.688435 96.655 -32.6308
62.135452 96.628 -32.7566
62.585712 96.602 -32.8838
63.039234 96.577 -33.0176
63.496040 96.551 -33.1548
63.956161 96.523 -33.2952
64.419617 96.494 -33.4338
64.886421 96.463 -33.5645
65.356621 96.431 -33.6898
65.830215 96.402 -33.8076
66.307251 96.374 -33.9248
66.787743 96.347 -34.0494
67.271713 96.319 -34.1758
67.759193 96.289 -34.3002
68.250206 96.258 -34.4238
68.744774 96.230 -34.5453
69.242928 96.202 -34.6678
69.744690 96.173 -34.7956
70.250084 96.142 -34.9228
70.759148 96.109 -35.0449
71.271896 96.076 -35.1608
71.788361 96.043 -35.2663
72.308571 96.011 -35.3658
72.832550 95.981 -35.4604
73.360321 95.952 -35.5558
73.891922 95.925 -35.6594
74.427376 95.898 -35.7678
74.966705 95.870 -35.8821
75.509949 95.840 -35.9958
76.057121 95.809 -36.1003
76.608261 95.778 -36.2028
77.163399 95.752 -36.3067
77.722557 95.727 -36.4148
78.285767 95.700 -36.5328
78.853058 95.672 -36.6557
79.424461 95.645 -36.7780
80.000000 95.618 -36.9077
80.579712 95.594 -37.0514
81.163628 95.570 -37.2087
81.751770 95.541 -37.3860
82.344177 95.509 -37.5696
82.940880 95.471 -37.7504
83.541901 95.430 -37.9217
84.147285 95.386 -38.0760
84.757050 95.339 -38.2068
85.371231 95.288 -38.3024
85.989868 95.238 -38.3709
86.612984 95.195 -38.4112
87.240616 95.157 -38.4389
87.872803 95.123 -38.4694
88.509560 95.092 -38.5019
89.150940 95.063 -38.5374
89.796967 95.037 -38.5869
90.447670 95.019 -38.6620
91.103088 95.002 -38.7618
91.763260 94.980 -38.8936
92.428215 94.955 -39.0437
93.097992 94.927 -39.2017
93.772614 94.895 -39.3637
94.452133 94.860 -39.5236
95.136566 94.822 -39.6777
95.825966 94.783 -39.8178
96.520363 94.743 -39.9507
97.219788 94.706 -40.0805
97.924286 94.668 -40.2077
98.633881 94.628 -40.3349
99.348625 94.587 -40.4607
100.068542 94.548 -40.5843
100.793686 94.508 -40.7067
101.524078 94.466 -40.8319
102.259766 94.422 -40.9507
103.000778 94.374 -41.0523
103.747162 94.327 -41.1448
104.498962 94.286 -41.2325
105.256203 94.245 -41.3168
106.018929 94.200 -41.4026
106.787186 94.154 -41.4848
107.561012 94.111 -41.5574
108.340446 94.068 -41.6289
109.125526 94.027 -41.7095
109.916290 93.984 -41.7879
110.712791 93.935 -41.8574
111.515060 93.884 -41.9139
112.323143 93.837 -41.9481
113.137085 93.791 -41.9690
113.956924 93.747 -41.9814
114.782700 93.704 -41.9880
115.614464 93.665 -41.9902
116.452255 93.628 -41.9960
117.296112 93.596 -42.0126
118.146095 93.565 -42.0429
119.002228 93.535 -42.0947
119.864563 93.504 -42.1598
120.733154 93.470 -42.2349
121.608040 93.433 -42.3138
122.489258 93.395 -42.3876
123.376869 93.356 -42.4608
124.270905 93.319 -42.5345
125.171425 93.282 -42.6099
126.078468 93.243 -42.6885
126.992081 93.203 -42.7698
127.912323 93.164 -42.8526
128.839233 93.124 -42.9398
129.772842 93.084 -43.0371
130.713242 93.041 -43.1348
131.660431 92.993 -43.2287
132.614502 92.941 -43.3088
133.575485 92.887 -43.3615
134.543427 92.833 -43.3930
135.518387 92.782 -43.4017
136.500412 92.733 -43.3970
137.489548 92.688 -43.3861
138.485855 92.646 -43.3740
139.489380 92.607 -43.3679
140.500168 92.569 -43.3690
141.518295 92.533 -43.3808
142.543793 92.497 -43.4039
143.576721 92.462 -43.4418
144.617142 92.426 -43.4899
145.665100 92.387 -43.5467
146.720642 92.346 -43.6058
147.783844 92.303 -43.6615
148.854752 92.258 -43.7109
149.933411 92.211 -43.7479
151.019897 92.165 -43.7769
152.114243 92.122 -43.7990
153.216522 92.079 -43.8189
154.326797 92.037 -43.8431
155.445114 91.994 -43.8679
156.571533 91.951 -43.8918
157.706116 91.908 -43.9159
158.848923 91.867 -43.9393
160.000000 91.826 -43.9679
161.159424 91.787 -44.0098
162.327255 91.747 -44.0579
163.503540 91.701 -44.1093
164.688354 91.654 -44.1599
165.881760 91.608 -44.2035
167.083801 91.562 -44.2439
168.294571 91.514 -44.2840
169.514099 91.465 -44.3209
170.742462 91.415 -44.3509
171.979736 91.364 -44.3789
173.225967 91.316 -44.4100
174.481232 91.267 -44.4399
175.745605 91.212 -44.4684
177.019119 91.155 -44.4880
178.301880 91.098 -44.4901
179.593933 91.040 -44.4771
180.895340 90.982 -44.4494
182.206177 90.922 -44.4031
183.526520 90.861 -44.3340
184.856430 90.801 -44.2432
186.195984 90.745 -44.1264
187.545227 90.694 -43.9963
188.904266 90.649 -43.8618
190.273132 90.608 -43.7303
191.651932 90.571 -43.6114
193.040726 90.537 -43.5073
194.439575 90.506 -43.4240
195.848572 90.476 -43.3602
197.267761 90.445 -43.3163
198.697250 90.414 -43.2920
200.137085 90.383 -43.2896
201.587372 90.350 -43.3020
203.048157 90.312 -43.3242
204.519531 90.270 -43.3519
206.001556 90.227 -43.3796
207.494324 90.182 -43.4049
208.997925 90.132 -43.4253
210.512405 90.080 -43.4360
212.037857 90.027 -43.4307
213.574371 89.972 -43.4121
215.122025 89.917 -43.3810
216.680893 89.862 -43.3371
218.251053 89.806 -43.2804
219.832581 89.750 -43.2112
221.425583 89.696 -43.1308
223.030121 89.641 -43.0363
224.646286 89.585 -42.9228
226.274170 89.531 -42.7973
227.913849 89.484 -42.6639
229.565399 89.439 -42.5263
231.228928 89.393 -42.3922
232.904510 89.348 -42.2544
234.592224 89.305 -42.1031
236.292191 89.265 -41.9544
238.004456 89.234 -41.8197
239.729126 89.206 -41.7033
241.466309 89.175 -41.6168
243.216080 89.143 -41.5492
244.978516 89.109 -41.4911
246.753738 89.074 -41.4481
248.541809 89.042 -41.4271
250.342850 89.005 -41.4140
252.156937 88.957 -41.3996
253.984161 88.905 -41.3761
255.824646 88.855 -41.3309
257.678467 88.803 -41.2692
259.545685 88.749 -41.1936
261.426483 88.694 -41.0993
263.320862 88.639 -40.9785
265.229004 88.586 -40.8414
267.150970 88.539 -40.6925
269.086853 88.494 -40.5404
271.036774 88.452 -40.3965
273.000824 88.411 -40.2574
274.979095 88.370 -40.1231
276.971710 88.329 -39.9954
278.978760 88.292 -39.8763
281.000336 88.254 -39.7653
283.036591 88.213 -39.6662
285.087585 88.170 -39.5673
287.153442 88.123 -39.4590
289.234283 88.074 -39.3393
291.330200 88.026 -39.2009
293.441284 87.978 -39.0504
295.567688 87.933 -38.8922
297.709503 87.890 -38.7264
299.866821 87.846 -38.5519
302.039795 87.805 -38.3765
304.228485 87.770 -38.2064
306.433044 87.736 -38.0454
308.653595 87.702 -37.9014
310.890228 87.667 -37.7684
313.143066 87.631 -37.6446
315.412231 87.592 -37.5243
317.697845 87.551 -37.4035
320.000000 87.508 -37.2754
322.318848 87.462 -37.1301
324.654510 87.415 -36.9725
327.007080 87.373 -36.8025
329.376709 87.332 -36.6256
331.763519 87.291 -36.4469
334.167603 87.251 -36.2676
336.589142 87.214 -36.0901
339.028198 87.178 -35.9155
341.484924 87.141 -35.7490
343.959473 87.102 -35.5805
346.451935 87.060 -35.3998
348.962463 87.018 -35.2115
351.491211 86.982 -35.0161
354.038239 86.946 -34.8166
356.603760 86.908 -34.6165
359.187866 86.871 -34.4146
361.790680 86.837 -34.2097
364.412354 86.804 -34.0056
367.053040 86.772 -33.8065
369.712860 86.741 -33.6106
372.391968 86.710 -33.4175
375.090454 86.678 -33.2275
377.808533 86.647 -33.0430
380.546265 86.616 -32.8586
383.303864 86.582 -32.6694
386.081451 86.548 -32.4766
388.879150 86.517 -32.2767
391.697144 86.488 -32.0786
394.535522 86.461 -31.8914
397.394501 86.434 -31.7105
400.274170 86.404 -31.5359
403.174744 86.372 -31.3626
406.096313 86.341 -31.1851
409.039062 86.310 -31.0046
412.003113 86.277 -30.8204
414.988647 86.244 -30.6326
417.995850 86.213 -30.4405
421.024811 86.182 -30.2456
424.075714 86.151 -30.0496
427.148743 86.120 -29.8516
430.244049 86.089 -29.6511
433.361786 86.059 -29.4497
436.502106 86.030 -29.2488
439.665161 86.002 -29.0486
442.851166 85.973 -28.8501
446.060242 85.944 -28.6516
449.292572 85.915 -28.4522
452.548340 85.885 -28.2516
455.827698 85.856 -28.0487
459.130798 85.827 -27.8447
462.457855 85.798 -27.6406
465.809021 85.769 -27.4357
469.184448 85.740 -27.2293
472.584381 85.711 -27.0216
476.008911 85.683 -26.8122
479.458252 85.654 -26.6017
482.932617 85.625 -26.3917
486.432159 85.596 -26.1787
489.957031 85.565 -25.9598
493.507477 85.534 -25.7347
497.083618 85.505 -25.5009
500.685699 85.476 -25.2618
504.313873 85.449 -25.0197
507.968323 85.422 -24.7758
511.649292 85.396 -24.5314
515.356934 85.371 -24.2878
519.091370 85.348 -24.0459
522.852966 85.325 -23.8088
526.641724 85.303 -23.5810
530.458008 85.281 -23.3587
534.301941 85.256 -23.1414
538.173706 85.230 -22.9237
542.073547 85.202 -22.7021
546.001648 85.173 -22.4708
549.958191 85.141 -22.2232
553.943420 85.108 -21.9589
557.957520 85.077 -21.6727
562.000671 85.048 -21.3730
566.073181 85.024 -21.0647
570.175171 85.002 -20.7530
574.306885 84.983 -20.4445
578.468567 84.965 -20.1400
582.660400 84.949 -19.8430
586.882568 84.934 -19.5530
591.135376 84.920 -19.2721
595.419006 84.906 -18.9969
599.733643 84.891 -18.7263
604.079590 84.875 -18.4559
608.456970 84.858 -18.1818
612.866089 84.841 -17.9030
617.307190 84.824 -17.6158
621.780457 84.808 -17.3250
626.286133 84.796 -17.0322
630.824463 84.785 -16.7419
635.395691 84.775 -16.4598
640.000000 84.766 -16.1839
644.637695 84.756 -15.9151
649.309021 84.746 -15.6509
654.014160 84.736 -15.3898
658.753418 84.725 -15.1299
663.527039 84.713 -14.8692
668.335205 84.700 -14.6059
673.178284 84.687 -14.3372
678.056396 84.674 -14.0639
682.969849 84.661 -13.7860
687.918945 84.649 -13.5040
692.903870 84.637 -13.2179
697.924927 84.626 -12.9290
702.982422 84.616 -12.6383
708.076477 84.606 -12.3461
713.207520 84.598 -12.0526
718.375732 84.590 -11.7590
723.581360 84.582 -11.4669
728.824707 84.575 -11.1750
734.106079 84.568 -10.8834
739.425720 84.561 -10.5910
744.783936 84.554 -10.2976
750.180908 84.547 -10.0021
755.617065 84.540 -9.7033
761.092529 84.533 -9.4011
766.607727 84.527 -9.0947
772.162903 84.521 -8.7851
777.758301 84.517 -8.4727
783.394287 84.513 -8.1581
789.071045 84.510 -7.8422
794.789001 84.507 -7.5251
800.548340 84.505 -7.2068
806.349487 84.503 -6.8881
812.192627 84.502 -6.5702
818.078125 84.502 -6.2522
824.006226 84.502 -5.9338
829.977295 84.502 -5.6141
835.991699 84.502 -5.2924
842.049622 84.502 -4.9682
848.151428 84.502 -4.6413
