* Measurement data measured by REW V5.20.13
* Source: C:\Users\kurin\Desktop\Targets and Curves\Resolve\Img\Files\Blessing3_L_SPL.txt
* Format: Comma/Tab/Space delimited data
* Dated: Aug 14, 2023 3:05:29 PM
* REW Settings:
*  C-weighting compensation: Off
*  Target level: 75.0 dB
* Note: ; Measurement imported from C:\Users\kurin\Desktop\Targets and Curves\Resolve\Img\Files\Blessing3_L_SPL.txt Format: Comma/Tab/Space delimited data 623 values loaded, 5 Hz to 39,792 Hz log spaced 
* Measurement: Blessing3_L_SPL
* Smoothing: 1/48 octave
* Frequency Step: 1/96 octave
* Start Frequency: 5.000 Hz
*
* Freq(Hz) SPL(dB) Phase(degrees)
5.000000 94.445 -13.0010
5.036232 94.442 -13.0043
5.072727 94.438 -13.0080
5.109486 94.433 -13.0125
5.146511 94.428 -13.0180
5.183805 94.422 -13.0251
5.221369 94.415 -13.0330
5.259205 94.408 -13.0407
5.297316 94.400 -13.0490
5.335702 94.392 -13.0582
5.374367 94.383 -13.0680
5.413311 94.375 -13.0779
5.452538 94.367 -13.0880
5.492050 94.359 -13.0980
5.531847 94.351 -13.1080
5.571934 94.343 -13.1180
5.612310 94.335 -13.1280
5.652979 94.326 -13.1379
5.693943 94.318 -13.1480
5.735204 94.310 -13.1584
5.776763 94.302 -13.1690
5.818624 94.294 -13.1800
5.860788 94.286 -13.1910
5.903258 94.278 -13.2015
5.946035 94.269 -13.2120
5.989123 94.261 -13.2229
6.032523 94.253 -13.2340
6.076237 94.245 -13.2449
6.120268 94.237 -13.2560
6.164618 94.229 -13.2674
6.209289 94.220 -13.2790
6.254284 94.212 -13.2905
6.299605 94.204 -13.3020
6.345255 94.196 -13.3134
6.391235 94.188 -13.3250
6.437549 94.180 -13.3369
6.484198 94.171 -13.3490
6.531185 94.163 -13.3610
6.578513 94.155 -13.3730
6.626183 94.147 -13.3849
6.674199 94.139 -13.3970
6.722563 94.131 -13.4094
6.771278 94.122 -13.4220
6.820345 94.114 -13.4350
6.869768 94.106 -13.4480
6.919549 94.098 -13.4605
6.969691 94.090 -13.4730
7.020196 94.081 -13.4859
7.071068 94.073 -13.4990
7.122308 94.065 -13.5119
7.173919 94.057 -13.5250
7.225904 94.049 -13.5384
7.278266 94.041 -13.5520
7.331007 94.033 -13.5654
7.384131 94.025 -13.5790
7.437639 94.017 -13.5929
7.491535 94.008 -13.6070
7.545822 94.000 -13.6209
7.600502 93.992 -13.6350
7.655579 93.984 -13.6494
7.711054 93.976 -13.6640
7.766932 93.967 -13.6785
7.823214 93.959 -13.6930
7.879904 93.951 -13.7074
7.937005 93.943 -13.7220
7.994520 93.935 -13.7369
8.052452 93.927 -13.7520
8.110803 93.919 -13.7669
8.169578 93.910 -13.7820
8.228777 93.902 -13.7974
8.288406 93.894 -13.8130
8.348468 93.886 -13.8284
8.408964 93.878 -13.8440
8.469899 93.869 -13.8599
8.531276 93.861 -13.8760
8.593097 93.853 -13.8919
8.655366 93.845 -13.9080
8.718086 93.837 -13.9244
8.781260 93.829 -13.9410
8.844893 93.821 -13.9574
8.908987 93.812 -13.9740
8.973545 93.804 -13.9909
9.038571 93.796 -14.0080
9.104069 93.788 -14.0255
9.170040 93.780 -14.0430
9.236490 93.771 -14.0599
9.303422 93.763 -14.0770
9.370838 93.755 -14.0949
9.438744 93.747 -14.1130
9.507140 93.739 -14.1310
9.576033 93.731 -14.1490
9.645425 93.723 -14.1669
9.715320 93.715 -14.1850
9.785721 93.706 -14.2039
9.856632 93.698 -14.2230
9.928058 93.690 -14.2414
10.000000 93.682 -14.2600
10.072464 93.674 -14.2794
10.145453 93.666 -14.2990
10.218971 93.658 -14.3185
10.293022 93.649 -14.3380
10.367610 93.641 -14.3574
10.442738 93.633 -14.3770
10.518411 93.625 -14.3969
10.594631 93.617 -14.4170
10.671404 93.608 -14.4374
10.748734 93.600 -14.4580
10.826623 93.592 -14.4789
10.905077 93.584 -14.5000
10.984100 93.576 -14.5209
11.063695 93.568 -14.5420
11.143867 93.560 -14.5634
11.224621 93.551 -14.5850
11.305959 93.543 -14.6064
11.387886 93.535 -14.6280
11.470407 93.527 -14.6504
11.553527 93.519 -14.6730
11.637249 93.511 -14.6954
11.721577 93.502 -14.7180
11.806517 93.494 -14.7409
11.892071 93.486 -14.7640
11.978246 93.478 -14.7869
12.065045 93.470 -14.8100
12.152473 93.462 -14.8334
12.240536 93.453 -14.8570
12.329235 93.445 -14.8809
12.418578 93.437 -14.9050
12.508568 93.429 -14.9294
12.599211 93.421 -14.9540
12.690510 93.413 -14.9789
12.782471 93.405 -15.0040
12.875097 93.397 -15.0294
12.968395 93.388 -15.0550
13.062370 93.380 -15.0804
13.157025 93.372 -15.1060
13.252366 93.364 -15.1319
13.348398 93.356 -15.1580
13.445127 93.348 -15.1843
13.542556 93.339 -15.2110
13.640691 93.331 -15.2384
13.739536 93.323 -15.2660
13.839099 93.315 -15.2934
13.939383 93.307 -15.3210
14.040393 93.299 -15.3489
14.142136 93.290 -15.3770
14.244616 93.282 -15.4049
14.347837 93.274 -15.4330
14.451808 93.266 -15.4618
14.556532 93.258 -15.4910
14.662014 93.250 -15.5204
14.768262 93.241 -15.5500
14.875278 93.233 -15.5798
14.983070 93.225 -15.6100
15.091644 93.217 -15.6408
15.201005 93.209 -15.6720
15.311157 93.201 -15.7029
15.422109 93.192 -15.7340
15.533863 93.184 -15.7653
15.646428 93.176 -15.7970
15.759809 93.168 -15.8294
15.874010 93.160 -15.8620
15.989040 93.152 -15.8944
16.104904 93.143 -15.9270
16.221605 93.135 -15.9603
16.339155 93.127 -15.9940
16.457554 93.119 -16.0278
16.576813 93.111 -16.0620
16.696936 93.103 -16.0969
16.817928 93.095 -16.1320
16.939798 93.087 -16.1668
17.062551 93.078 -16.2020
17.186193 93.070 -16.2378
17.310732 93.062 -16.2740
17.436172 93.054 -16.3104
17.562521 93.046 -16.3470
17.689787 93.038 -16.3838
17.817974 93.029 -16.4210
17.947090 93.021 -16.4583
18.077143 93.013 -16.4960
18.208138 93.005 -16.5343
18.340080 92.997 -16.5730
18.472980 92.989 -16.6119
18.606844 92.980 -16.6510
18.741676 92.972 -16.6900
18.877487 92.964 -16.7290
19.014280 92.956 -16.7680
19.152065 92.948 -16.8070
19.290850 92.940 -16.8459
19.430639 92.932 -16.8850
19.571442 92.924 -16.9242
19.713264 92.917 -16.9640
19.856115 92.909 -17.0046
20.000000 92.902 -17.0470
20.144928 92.896 -17.0924
20.290907 92.890 -17.1400
20.437943 92.883 -17.1893
20.586044 92.875 -17.2400
20.735220 92.867 -17.2909
20.885475 92.860 -17.3429
21.036821 92.853 -17.3964
21.189262 92.846 -17.4519
21.342808 92.839 -17.5107
21.497467 92.832 -17.5709
21.653246 92.824 -17.6312
21.810154 92.815 -17.6919
21.968201 92.807 -17.7532
22.127390 92.798 -17.8149
22.287735 92.789 -17.8779
22.449242 92.780 -17.9400
22.611917 92.770 -17.9989
22.775772 92.759 -18.0549
22.940815 92.749 -18.1064
23.107054 92.740 -18.1559
23.274498 92.732 -18.2053
23.443153 92.725 -18.2559
23.613033 92.718 -18.3098
23.784142 92.711 -18.3669
23.956491 92.704 -18.4281
24.130091 92.698 -18.4929
24.304947 92.692 -18.5615
24.481071 92.685 -18.6339
24.658470 92.679 -18.7100
24.837156 92.672 -18.7899
25.017136 92.665 -18.8744
25.198421 92.658 -18.9619
25.381020 92.649 -19.0513
25.564941 92.640 -19.1419
25.750195 92.631 -19.2324
25.936790 92.621 -19.3239
26.124741 92.611 -19.4180
26.314051 92.600 -19.5119
26.504732 92.588 -19.6026
26.696796 92.576 -19.6919
26.890253 92.564 -19.7804
27.085112 92.553 -19.8689
27.281382 92.542 -19.9586
27.479073 92.530 -20.0489
27.678198 92.518 -20.1388
27.878765 92.506 -20.2299
28.080786 92.494 -20.3241
28.284271 92.482 -20.4199
28.489231 92.469 -20.5169
28.695675 92.455 -20.6139
28.903616 92.441 -20.7088
29.113064 92.426 -20.8029
29.324028 92.412 -20.8966
29.536524 92.398 -20.9899
29.750557 92.383 -21.0825
29.966141 92.368 -21.1749
30.183289 92.353 -21.2678
30.402010 92.337 -21.3609
30.622314 92.322 -21.4548
30.844217 92.306 -21.5479
31.067726 92.289 -21.6388
31.292856 92.271 -21.7269
31.519617 92.253 -21.8103
31.748020 92.236 -21.8909
31.978081 92.219 -21.9700
32.209808 92.202 -22.0469
32.443211 92.185 -22.1204
32.678310 92.169 -22.1939
32.915108 92.155 -22.2697
33.153625 92.142 -22.3499
33.393871 92.129 -22.4382
33.635857 92.115 -22.5319
33.879597 92.100 -22.6291
34.125103 92.085 -22.7299
34.372387 92.069 -22.8337
34.621464 92.053 -22.9398
34.872345 92.035 -23.0486
35.125042 92.016 -23.1569
35.379574 91.996 -23.2615
35.635948 91.975 -23.3629
35.894180 91.954 -23.4598
36.154285 91.933 -23.5539
36.416275 91.912 -23.6470
36.680161 91.891 -23.7379
36.945961 91.869 -23.8263
37.213688 91.846 -23.9109
37.483353 91.823 -23.9893
37.754974 91.801 -24.0639
38.028561 91.780 -24.1358
38.304131 91.759 -24.2059
38.581699 91.738 -24.2753
38.861279 91.717 -24.3439
39.142883 91.697 -24.4113
39.426529 91.677 -24.4799
39.712231 91.659 -24.5513
40.000000 91.641 -24.6269
40.289856 91.623 -24.7094
40.581814 91.604 -24.7959
40.875885 91.584 -24.8849
41.172089 91.563 -24.9749
41.470440 91.541 -25.0634
41.770950 91.519 -25.1509
42.073643 91.497 -25.2370
42.378525 91.474 -25.3209
42.685616 91.451 -25.4013
42.994934 91.427 -25.4789
43.306492 91.404 -25.5537
43.620308 91.381 -25.6269
43.936401 91.358 -25.6994
44.254780 91.336 -25.7719
44.575470 91.314 -25.8444
44.898483 91.293 -25.9189
45.223835 91.272 -25.9978
45.551544 91.250 -26.0799
45.881630 91.228 -26.1652
46.214108 91.206 -26.2529
46.548996 91.183 -26.3422
46.886307 91.159 -26.4329
47.226067 91.135 -26.5249
47.568283 91.110 -26.6168
47.912983 91.084 -26.7080
48.260181 91.057 -26.7969
48.609894 91.029 -26.8817
48.962143 91.000 -26.9619
49.316940 90.971 -27.0357
49.674313 90.942 -27.1039
50.034271 90.913 -27.1663
50.396843 90.884 -27.2239
50.762039 90.856 -27.2768
51.129883 90.829 -27.3269
51.500389 90.803 -27.3753
51.873581 90.777 -27.4249
52.249481 90.753 -27.4792
52.628101 90.730 -27.5379
53.009464 90.706 -27.6020
53.393593 90.682 -27.6719
53.780506 90.658 -27.7484
54.170223 90.634 -27.8309
54.562763 90.609 -27.9199
54.958145 90.582 -28.0119
55.356396 90.552 -28.1045
55.757530 90.521 -28.1949
56.161572 90.489 -28.2797
56.568542 90.456 -28.3579
56.978462 90.421 -28.4268
57.391350 90.386 -28.4879
57.807232 90.352 -28.5413
58.226128 90.318 -28.5879
58.648056 90.283 -28.6281
59.073048 90.249 -28.6629
59.501114 90.216 -28.6932
59.932281 90.184 -28.7210
60.366577 90.153 -28.7484
60.804020 90.123 -28.7760
61.244629 90.092 -28.8052
61.688435 90.061 -28.8349
62.135452 90.030 -28.8645
62.585712 90.000 -28.8939
63.039234 89.970 -28.9232
63.496040 89.939 -28.9520
63.956161 89.908 -28.9793
64.419617 89.878 -29.0070
64.886421 89.849 -29.0365
65.356621 89.819 -29.0679
65.830215 89.789 -29.1021
66.307251 89.758 -29.1379
66.787743 89.727 -29.1751
67.271713 89.696 -29.2129
67.759193 89.664 -29.2518
68.250206 89.631 -29.2889
68.744774 89.597 -29.3217
69.242928 89.562 -29.3500
69.744690 89.527 -29.3724
70.250084 89.492 -29.3900
70.759148 89.457 -29.4027
71.271896 89.423 -29.4120
71.788361 89.390 -29.4186
72.308571 89.357 -29.4250
72.832550 89.325 -29.4339
73.360321 89.293 -29.4450
73.891922 89.261 -29.4598
74.427376 89.228 -29.4760
74.966705 89.194 -29.4920
75.509949 89.160 -29.5070
76.057121 89.125 -29.5197
76.608261 89.090 -29.5300
77.163399 89.054 -29.5375
77.722557 89.018 -29.5420
78.285767 88.982 -29.5428
78.853058 88.945 -29.5400
79.424461 88.909 -29.5335
80.000000 88.873 -29.5240
80.579712 88.837 -29.5121
81.163628 88.801 -29.4980
81.751770 88.765 -29.4820
82.344177 88.729 -29.4640
82.940880 88.693 -29.4447
83.541901 88.656 -29.4230
84.147285 88.620 -29.3984
84.757050 88.584 -29.3711
85.371231 88.548 -29.3410
85.989868 88.511 -29.3081
86.612984 88.475 -29.2718
87.240616 88.440 -29.2331
87.872803 88.405 -29.1921
88.509560 88.370 -29.1501
89.150940 88.336 -29.1077
89.796967 88.302 -29.0661
90.447670 88.269 -29.0261
91.103088 88.236 -28.9891
91.763260 88.203 -28.9574
92.428215 88.170 -28.9291
93.097992 88.136 -28.9039
93.772614 88.100 -28.8791
94.452133 88.064 -28.8521
95.136566 88.027 -28.8221
95.825966 87.988 -28.7875
96.520363 87.949 -28.7471
97.219788 87.910 -28.6989
97.924286 87.870 -28.6441
98.633881 87.831 -28.5823
99.348625 87.792 -28.5161
100.068542 87.755 -28.4483
100.793686 87.718 -28.3792
101.524078 87.681 -28.3100
102.259766 87.643 -28.2402
103.000778 87.606 -28.1698
103.747162 87.569 -28.0981
104.498962 87.531 -28.0249
105.256203 87.492 -27.9482
106.018929 87.453 -27.8662
106.787186 87.413 -27.7782
107.561012 87.373 -27.6824
108.340446 87.334 -27.5802
109.125526 87.295 -27.4716
109.916290 87.257 -27.3582
110.712791 87.220 -27.2412
111.515060 87.183 -27.1213
112.323143 87.147 -26.9994
113.137085 87.111 -26.8763
113.956924 87.077 -26.7523
114.782700 87.043 -26.6283
115.614464 87.009 -26.5063
116.452255 86.974 -26.3832
117.296112 86.939 -26.2565
118.146095 86.905 -26.1273
119.002228 86.872 -25.9955
119.864563 86.839 -25.8624
120.733154 86.807 -25.7296
121.608040 86.774 -25.5963
122.489258 86.741 -25.4614
123.376869 86.709 -25.3263
124.270905 86.677 -25.1920
125.171425 86.646 -25.0582
126.078468 86.615 -24.9262
126.992081 86.583 -24.7933
127.912323 86.550 -24.6570
128.839233 86.517 -24.5183
129.772842 86.485 -24.3773
130.713242 86.453 -24.2343
131.660431 86.421 -24.0898
132.614502 86.388 -23.9424
133.575485 86.356 -23.7900
134.543427 86.324 -23.6353
135.518387 86.293 -23.4807
136.500412 86.262 -23.3253
137.489548 86.230 -23.1697
138.485855 86.198 -23.0114
139.489380 86.166 -22.8475
140.500168 86.134 -22.6794
141.518295 86.102 -22.5078
142.543793 86.070 -22.3314
143.576721 86.038 -22.1489
144.617142 86.006 -21.9604
145.665100 85.975 -21.7649
146.720642 85.945 -21.5646
147.783844 85.916 -21.3607
148.854752 85.888 -21.1545
149.933411 85.862 -20.9466
151.019897 85.837 -20.7395
152.114243 85.813 -20.5367
153.216522 85.789 -20.3366
154.326797 85.765 -20.1389
155.445114 85.741 -19.9435
156.571533 85.718 -19.7499
157.706116 85.695 -19.5574
158.848923 85.671 -19.3654
160.000000 85.647 -19.1725
161.159424 85.622 -18.9769
162.327255 85.598 -18.7794
163.503540 85.574 -18.5802
164.688354 85.551 -18.3794
165.881760 85.527 -18.1775
167.083801 85.503 -17.9735
168.294571 85.480 -17.7666
169.514099 85.456 -17.5565
170.742462 85.432 -17.3434
171.979736 85.408 -17.1256
173.225967 85.384 -16.9011
174.481232 85.360 -16.6705
175.745605 85.337 -16.4331
177.019119 85.316 -16.1916
178.301880 85.296 -15.9478
179.593933 85.278 -15.7036
180.895340 85.261 -15.4615
182.206177 85.245 -15.2216
183.526520 85.229 -14.9852
184.856430 85.213 -14.7515
186.195984 85.198 -14.5210
187.545227 85.183 -14.2915
188.904266 85.167 -14.0621
190.273132 85.150 -13.8306
191.651932 85.134 -13.5935
193.040726 85.118 -13.3537
194.439575 85.104 -13.1128
195.848572 85.090 -12.8707
197.267761 85.075 -12.6282
198.697250 85.061 -12.3846
200.137085 85.048 -12.1392
201.587372 85.036 -11.8936
203.048157 85.024 -11.6500
204.519531 85.011 -11.4057
206.001556 84.999 -11.1593
207.494324 84.986 -10.9096
208.997925 84.973 -10.6550
210.512405 84.961 -10.3956
212.037857 84.949 -10.1315
213.574371 84.937 -9.8617
215.122025 84.926 -9.5845
216.680893 84.917 -9.3018
218.251053 84.909 -9.0147
219.832581 84.903 -8.7239
221.425583 84.897 -8.4302
223.030121 84.893 -8.1338
224.646286 84.890 -7.8336
226.274170 84.890 -7.5328
227.913849 84.892 -7.2334
229.565399 84.897 -6.9377
231.228928 84.904 -6.6482
232.904510 84.912 -6.3658
234.592224 84.922 -6.0915
236.292191 84.933 -5.8277
238.004456 84.947 -5.5771
239.729126 84.962 -5.3406
241.466309 84.977 -5.1208
243.216080 84.991 -4.9145
244.978516 85.004 -4.7200
246.753738 85.016 -4.5355
248.541809 85.028 -4.3598
250.342850 85.038 -4.1895
252.156937 85.046 -4.0213
253.984161 85.053 -3.8545
255.824646 85.060 -3.6864
257.678467 85.067 -3.5184
259.545685 85.074 -3.3508
261.426483 85.080 -3.1834
263.320862 85.086 -3.0163
265.229004 85.092 -2.8495
267.150970 85.098 -2.6834
269.086853 85.103 -2.5175
271.036774 85.109 -2.3518
273.000824 85.114 -2.1845
274.979095 85.117 -2.0137
276.971710 85.121 -1.8395
278.978760 85.126 -1.6606
281.000336 85.132 -1.4795
283.036591 85.139 -1.2983
285.087585 85.146 -1.1175
287.153442 85.154 -0.9375
289.234283 85.163 -0.7605
291.330200 85.173 -0.5890
293.441284 85.183 -0.4224
295.567688 85.193 -0.2620
297.709503 85.203 -0.1054
299.866821 85.212 0.0491
302.039795 85.221 0.2015
304.228485 85.230 0.3530
306.433044 85.239 0.5026
308.653595 85.248 0.6490
310.890228 85.256 0.7946
313.143066 85.264 0.9413
315.412231 85.271 1.0896
317.697845 85.278 1.2413
320.000000 85.286 1.3945
322.318848 85.295 1.5478
324.654510 85.304 1.7015
327.007080 85.312 1.8559
329.376709 85.321 2.0105
331.763519 85.331 2.1659
334.167603 85.342 2.3195
336.589142 85.354 2.4688
339.028198 85.366 2.6146
341.484924 85.377 2.7564
343.959473 85.388 2.8956
346.451935 85.400 3.0342
348.962463 85.412 3.1706
351.491211 85.424 3.3031
354.038239 85.436 3.4336
356.603760 85.447 3.5644
359.187866 85.459 3.6936
361.790680 85.471 3.8199
364.412354 85.484 3.9437
367.053040 85.496 4.0643
369.712860 85.508 4.1826
372.391968 85.521 4.2993
375.090454 85.533 4.4137
377.808533 85.545 4.5246
380.546265 85.556 4.6337
383.303864 85.567 4.7429
386.081451 85.579 4.8507
388.879150 85.591 4.9557
391.697144 85.603 5.0587
394.535522 85.614 5.1600
397.394501 85.624 5.2597
400.274170 85.635 5.3586
403.174744 85.646 5.4557
406.096313 85.657 5.5491
409.039062 85.667 5.6417
412.003113 85.675 5.7356
414.988647 85.683 5.8307
417.995850 85.692 5.9282
421.024811 85.701 6.0267
424.075714 85.710 6.1246
427.148743 85.718 6.2227
430.244049 85.726 6.3210
433.361786 85.734 6.4207
436.502106 85.742 6.5237
439.665161 85.750 6.6277
442.851166 85.759 6.7312
446.060242 85.768 6.8337
449.292572 85.777 6.9334
452.548340 85.785 7.0327
455.827698 85.793 7.1331
459.130798 85.800 7.2347
462.457855 85.808 7.3385
465.809021 85.816 7.4437
469.184448 85.824 7.5497
472.584381 85.832 7.6567
476.008911 85.839 7.7644
479.458252 85.847 7.8737
482.932617 85.855 7.9856
486.432159 85.863 8.0986
489.957031 85.872 8.2123
493.507477 85.882 8.3247
497.083618 85.893 8.4325
500.685699 85.903 8.5387
504.313873 85.912 8.6449
507.968323 85.921 8.7507
511.649292 85.931 8.8565
515.356934 85.941 8.9607
519.091370 85.951 9.0607
522.852966 85.961 9.1597
526.641724 85.969 9.2595
530.458008 85.977 9.3607
534.301941 85.985 9.4644
538.173706 85.993 9.5696
542.073547 86.001 9.6756
546.001648 86.010 9.7826
549.958191 86.018 9.8906
553.943420 86.026 10.0006
557.957520 86.034 10.1146
562.000671 86.042 10.2306
566.073181 86.051 10.3478
570.175171 86.060 10.4646
574.306885 86.070 10.5784
578.468567 86.080 10.6916
582.660400 86.088 10.8062
586.882568 86.097 10.9216
591.135376 86.107 11.0388
595.419006 86.118 11.1556
599.733643 86.128 11.2688
604.079590 86.138 11.3816
608.456970 86.147 11.4965
612.866089 86.156 11.6126
617.307190 86.166 11.7303
621.780457 86.177 11.8476
626.286133 86.187 11.9618
630.824463 86.197 12.0756
635.395691 86.206 12.1912
640.000000 86.215 12.3076
644.637695 86.225 12.4255
649.309021 86.235 12.5426
654.014160 86.245 12.6557
658.753418 86.255 12.7686
663.527039 86.262 12.8836
668.335205 86.269 13.0016
673.178284 86.276 13.1241
678.056396 86.283 13.2516
682.969849 86.289 13.3847
687.918945 86.294 13.5245
692.903870 86.300 13.6727
697.924927 86.307 13.8274
702.982422 86.315 13.9882
708.076477 86.323 14.1534
713.207520 86.332 14.3217
718.375732 86.342 14.4914
723.581360 86.353 14.6599
728.824707 86.365 14.8284
734.106079 86.376 14.9966
739.425720 86.387 15.1664
744.783936 86.398 15.3396
750.180908 86.409 15.5164
755.617065 86.420 15.6968
761.092529 86.432 15.8823
766.607727 86.444 16.0747
772.162903 86.456 16.2723
777.758301 86.470 16.4740
783.394287 86.485 16.6793
789.071045 86.501 16.8878
794.789001 86.517 17.0982
800.548340 86.535 17.3087
806.349487 86.553 17.5202
812.192627 86.571 17.7326
818.078125 86.590 17.9482
824.006226 86.609 18.1699
829.977295 86.629 18.3962
835.991699 86.650 18.6267
842.049622 86.673 18.8611
848.151428 86.696 19.0987
854.297485 86.721 19.3401
860.488098 86.747 19.5868
866.723572 86.776 19.8351
873.004211 86.807 20.0824
879.330322 86.840 20.3271
885.702332 86.875 20.5666
892.120483 86.911 20.8012
