* Measurement data measured by REW V5.20.13
* Source: C:\Users\kurin\Desktop\Targets and Curves\Resolve\Img\Files\Ovidius tx-901_SPL.txt
* Format: Comma/Tab/Space delimited data
* Dated: Aug 15, 2023 12:16:07 AM
* REW Settings:
*  C-weighting compensation: Off
*  Target level: 75.0 dB
* Note: ; Measurement imported from C:\Users\kurin\Desktop\Targets and Curves\Resolve\Img\Files\Ovidius tx-901_SPL.txt Format: Comma/Tab/Space delimited data 623 values loaded, 5 Hz to 39,792 Hz log spaced 
* Measurement: Ovidius tx-901_SPL
* Smoothing: 1/48 octave
* Frequency Step: 1/96 octave
* Start Frequency: 5.000 Hz
*
* Freq(Hz) SPL(dB) Phase(degrees)
5.000000 90.735 -2.7680
5.036232 90.735 -2.7690
5.072727 90.734 -2.7700
5.109486 90.733 -2.7709
5.146511 90.732 -2.7720
5.183805 90.731 -2.7739
5.221369 90.729 -2.7760
5.259205 90.728 -2.7780
5.297316 90.726 -2.7800
5.335702 90.724 -2.7819
5.374367 90.722 -2.7840
5.413311 90.720 -2.7865
5.452538 90.719 -2.7890
5.492050 90.718 -2.7910
5.531847 90.716 -2.7930
5.571934 90.714 -2.7954
5.612310 90.712 -2.7980
5.652979 90.710 -2.8005
5.693943 90.709 -2.8030
5.735204 90.707 -2.8055
5.776763 90.705 -2.8080
5.818624 90.704 -2.8105
5.860788 90.702 -2.8130
5.903258 90.700 -2.8155
5.946035 90.698 -2.8180
5.989123 90.696 -2.8205
6.032523 90.695 -2.8230
6.076237 90.693 -2.8254
6.120268 90.691 -2.8280
6.164618 90.689 -2.8310
6.209289 90.688 -2.8340
6.254284 90.687 -2.8365
6.299605 90.685 -2.8390
6.345255 90.683 -2.8420
6.391235 90.681 -2.8450
6.437549 90.680 -2.8475
6.484198 90.678 -2.8500
6.531185 90.676 -2.8529
6.578513 90.674 -2.8560
6.626183 90.673 -2.8591
6.674199 90.671 -2.8620
6.722563 90.669 -2.8645
6.771278 90.667 -2.8670
6.820345 90.665 -2.8699
6.869768 90.664 -2.8730
6.919549 90.663 -2.8759
6.969691 90.661 -2.8790
7.020196 90.659 -2.8825
7.071068 90.657 -2.8860
7.122308 90.655 -2.8891
7.173919 90.654 -2.8920
7.225904 90.652 -2.8949
7.278266 90.650 -2.8980
7.331007 90.649 -2.9015
7.384131 90.647 -2.9050
7.437639 90.645 -2.9080
7.491535 90.643 -2.9110
7.545822 90.641 -2.9144
7.600502 90.640 -2.9180
7.655579 90.638 -2.9216
7.711054 90.636 -2.9250
7.766932 90.634 -2.9280
7.823214 90.633 -2.9310
7.879904 90.632 -2.9344
7.937005 90.630 -2.9380
7.994520 90.628 -2.9414
8.052452 90.626 -2.9450
8.110803 90.625 -2.9490
8.169578 90.623 -2.9530
8.228777 90.621 -2.9566
8.288406 90.619 -2.9600
8.348468 90.618 -2.9634
8.408964 90.616 -2.9670
8.469899 90.614 -2.9709
8.531276 90.612 -2.9750
8.593097 90.610 -2.9790
8.655366 90.609 -2.9830
8.718086 90.608 -2.9870
8.781260 90.606 -2.9910
8.844893 90.604 -2.9950
8.908987 90.602 -2.9990
8.973545 90.601 -3.0030
9.038571 90.599 -3.0070
9.104069 90.597 -3.0110
9.170040 90.595 -3.0150
9.236490 90.594 -3.0189
9.303422 90.592 -3.0230
9.370838 90.590 -3.0274
9.438744 90.588 -3.0320
9.507140 90.586 -3.0366
9.576033 90.585 -3.0410
9.645425 90.584 -3.0450
9.715320 90.582 -3.0490
9.785721 90.580 -3.0534
9.856632 90.578 -3.0580
9.928058 90.576 -3.0624
10.000000 90.575 -3.0670
10.072464 90.573 -3.0720
10.145453 90.571 -3.0770
10.218971 90.570 -3.0815
10.293022 90.568 -3.0860
10.367610 90.566 -3.0909
10.442738 90.564 -3.0960
10.518411 90.562 -3.1010
10.594631 90.561 -3.1060
10.671404 90.559 -3.1110
10.748734 90.557 -3.1160
10.826623 90.555 -3.1210
10.905077 90.554 -3.1260
10.984100 90.553 -3.1310
11.063695 90.551 -3.1360
11.143867 90.549 -3.1409
11.224621 90.547 -3.1460
11.305959 90.546 -3.1514
11.387886 90.544 -3.1570
11.470407 90.542 -3.1625
11.553527 90.540 -3.1680
11.637249 90.539 -3.1735
11.721577 90.537 -3.1790
11.806517 90.535 -3.1844
11.892071 90.533 -3.1900
11.978246 90.531 -3.1960
12.065045 90.530 -3.2020
12.152473 90.529 -3.2075
12.240536 90.527 -3.2130
12.329235 90.525 -3.2189
12.418578 90.523 -3.2250
12.508568 90.521 -3.2309
12.599211 90.520 -3.2370
12.690510 90.518 -3.2435
12.782471 90.516 -3.2500
12.875097 90.515 -3.2560
12.968395 90.513 -3.2620
13.062370 90.511 -3.2684
13.157025 90.509 -3.2750
13.252366 90.507 -3.2815
13.348398 90.506 -3.2880
13.445127 90.504 -3.2944
13.542556 90.502 -3.3010
13.640691 90.500 -3.3080
13.739536 90.499 -3.3150
13.839099 90.498 -3.3215
13.939383 90.496 -3.3280
14.040393 90.494 -3.3349
14.142136 90.492 -3.3420
14.244616 90.491 -3.3495
14.347837 90.489 -3.3570
14.451808 90.487 -3.3640
14.556532 90.485 -3.3710
14.662014 90.484 -3.3784
14.768262 90.482 -3.3860
14.875278 90.480 -3.3935
14.983070 90.478 -3.4010
15.091644 90.476 -3.4084
15.201005 90.475 -3.4160
15.311157 90.474 -3.4239
15.422109 90.472 -3.4320
15.533863 90.470 -3.4405
15.646428 90.468 -3.4490
15.759809 90.466 -3.4570
15.874010 90.465 -3.4650
15.989040 90.463 -3.4734
16.104904 90.461 -3.4820
16.221605 90.460 -3.4905
16.339155 90.458 -3.4990
16.457554 90.456 -3.5075
16.576813 90.454 -3.5160
16.696936 90.452 -3.5244
16.817928 90.451 -3.5330
16.939798 90.449 -3.5420
17.062551 90.447 -3.5510
17.186193 90.445 -3.5596
17.310732 90.444 -3.5680
17.436172 90.443 -3.5764
17.562521 90.441 -3.5850
17.689787 90.439 -3.5940
17.817974 90.437 -3.6030
17.947090 90.436 -3.6116
18.077143 90.434 -3.6200
18.208138 90.432 -3.6286
18.340080 90.430 -3.6370
18.472980 90.429 -3.6446
18.606844 90.427 -3.6520
18.741676 90.425 -3.6596
18.877487 90.423 -3.6670
19.014280 90.421 -3.6738
19.152065 90.420 -3.6800
19.290850 90.419 -3.6855
19.430639 90.417 -3.6900
19.571442 90.415 -3.6931
19.713264 90.413 -3.6950
19.856115 90.412 -3.6959
20.000000 90.411 -3.6950
20.144928 90.410 -3.6913
20.290907 90.409 -3.6850
20.437943 90.409 -3.6761
20.586044 90.409 -3.6650
20.735220 90.410 -3.6516
20.885475 90.413 -3.6380
21.036821 90.418 -3.6252
21.189262 90.425 -3.6170
21.342808 90.433 -3.6173
21.497467 90.443 -3.6270
21.653246 90.453 -3.6472
21.810154 90.464 -3.6809
21.968201 90.478 -3.7302
22.127390 90.492 -3.7989
22.287735 90.505 -3.8937
22.449242 90.516 -4.0089
22.611917 90.524 -4.1432
22.775772 90.528 -4.2908
22.940815 90.528 -4.4474
23.107054 90.524 -4.6068
23.274498 90.515 -4.7638
23.443153 90.501 -4.9108
23.613033 90.482 -5.0392
23.784142 90.461 -5.1459
23.956491 90.438 -5.2236
24.130091 90.415 -5.2770
24.304947 90.394 -5.3059
24.481071 90.374 -5.3170
24.658470 90.357 -5.3153
24.837156 90.343 -5.3060
25.017136 90.332 -5.2953
25.198421 90.322 -5.2850
25.381020 90.313 -5.2798
25.564941 90.305 -5.2770
25.750195 90.297 -5.2765
25.936790 90.288 -5.2760
26.124741 90.279 -5.2731
26.314051 90.271 -5.2680
26.504732 90.263 -5.2601
26.696796 90.255 -5.2490
26.890253 90.248 -5.2328
27.085112 90.242 -5.2160
27.281382 90.239 -5.2020
27.479073 90.237 -5.1920
27.678198 90.236 -5.1884
27.878765 90.235 -5.1920
28.080786 90.235 -5.2044
28.284271 90.234 -5.2250
28.489231 90.233 -5.2540
28.695675 90.232 -5.2909
28.903616 90.231 -5.3360
29.113064 90.228 -5.3869
29.324028 90.223 -5.4428
29.536524 90.216 -5.4999
29.750557 90.207 -5.5546
29.966141 90.197 -5.6059
30.183289 90.186 -5.6526
30.402010 90.173 -5.6920
30.622314 90.158 -5.7211
30.844217 90.143 -5.7390
31.067726 90.128 -5.7421
31.292856 90.115 -5.7350
31.519617 90.104 -5.7205
31.748020 90.094 -5.7010
31.978081 90.085 -5.6795
32.209808 90.077 -5.6580
32.443211 90.072 -5.6385
32.678310 90.068 -5.6240
32.915108 90.065 -5.6186
33.153625 90.062 -5.6220
33.393871 90.059 -5.6360
33.635857 90.056 -5.6580
33.879597 90.051 -5.6870
34.125103 90.044 -5.7190
34.372387 90.036 -5.7496
34.621464 90.027 -5.7790
34.872345 90.017 -5.8063
35.125042 90.006 -5.8300
35.379574 89.994 -5.8486
35.635948 89.981 -5.8600
35.894180 89.967 -5.8603
36.154285 89.954 -5.8530
36.416275 89.943 -5.8398
36.680161 89.933 -5.8230
36.945961 89.924 -5.8057
37.213688 89.915 -5.7880
37.483353 89.907 -5.7702
37.754974 89.900 -5.7550
38.028561 89.894 -5.7455
38.304131 89.888 -5.7410
38.581699 89.881 -5.7427
38.861279 89.874 -5.7480
39.142883 89.866 -5.7547
39.426529 89.857 -5.7620
39.712231 89.848 -5.7690
40.000000 89.837 -5.7740
40.289856 89.825 -5.7759
40.581814 89.812 -5.7720
40.875885 89.799 -5.7583
41.172089 89.786 -5.7380
41.470440 89.775 -5.7122
41.770950 89.764 -5.6830
42.073643 89.754 -5.6534
42.378525 89.744 -5.6230
42.685616 89.735 -5.5923
42.994934 89.727 -5.5620
43.306492 89.719 -5.5337
43.620308 89.710 -5.5060
43.936401 89.701 -5.4787
44.254780 89.692 -5.4510
44.575470 89.684 -5.4220
44.898483 89.675 -5.3920
45.223835 89.666 -5.3612
45.551544 89.657 -5.3290
45.881630 89.648 -5.2951
46.214108 89.640 -5.2601
46.548996 89.632 -5.2247
46.886307 89.624 -5.1881
47.226067 89.615 -5.1498
47.568283 89.606 -5.1091
47.912983 89.597 -5.0648
48.260181 89.589 -5.0171
48.609894 89.580 -4.9655
48.962143 89.572 -4.9101
49.316940 89.564 -4.8498
49.674313 89.558 -4.7871
50.034271 89.554 -4.7233
50.396843 89.551 -4.6611
50.762039 89.549 -4.6037
51.129883 89.548 -4.5511
51.500389 89.547 -4.5044
51.873581 89.547 -4.4641
52.249481 89.547 -4.4313
52.628101 89.547 -4.4050
53.009464 89.546 -4.3848
53.393593 89.545 -4.3700
53.780506 89.543 -4.3611
54.170223 89.540 -4.3550
54.562763 89.535 -4.3501
54.958145 89.529 -4.3430
55.356396 89.521 -4.3297
55.757530 89.512 -4.3100
56.161572 89.504 -4.2826
56.568542 89.496 -4.2481
56.978462 89.487 -4.2067
57.391350 89.479 -4.1591
57.807232 89.473 -4.1044
58.226128 89.468 -4.0471
58.648056 89.465 -3.9908
59.073048 89.463 -3.9371
59.501114 89.462 -3.8887
59.932281 89.461 -3.8451
60.366577 89.461 -3.8063
60.804020 89.461 -3.7731
61.244629 89.461 -3.7467
61.688435 89.461 -3.7260
62.135452 89.460 -3.7107
62.585712 89.459 -3.7000
63.039234 89.457 -3.6938
63.496040 89.454 -3.6900
63.956161 89.449 -3.6879
64.419617 89.443 -3.6830
64.886421 89.435 -3.6703
65.356621 89.426 -3.6510
65.830215 89.418 -3.6246
66.307251 89.410 -3.5911
66.787743 89.401 -3.5499
67.271713 89.393 -3.5021
67.759193 89.387 -3.4470
68.250206 89.382 -3.3891
68.744774 89.379 -3.3324
69.242928 89.377 -3.2781
69.744690 89.376 -3.2289
70.250084 89.375 -3.1851
70.759148 89.375 -3.1481
71.271896 89.375 -3.1171
71.788361 89.374 -3.0919
72.308571 89.373 -3.0720
72.832550 89.371 -3.0578
73.360321 89.368 -3.0460
73.891922 89.363 -3.0345
74.427376 89.357 -3.0200
74.966705 89.349 -2.9985
75.509949 89.340 -2.9701
76.057121 89.332 -2.9335
76.608261 89.324 -2.8891
77.163399 89.316 -2.8362
77.722557 89.308 -2.7761
78.285767 89.301 -2.7084
78.853058 89.296 -2.6371
79.424461 89.293 -2.5660
80.000000 89.291 -2.4961
80.579712 89.290 -2.4301
81.163628 89.289 -2.3671
81.751770 89.289 -2.3076
82.344177 89.289 -2.2511
82.940880 89.289 -2.1979
83.541901 89.289 -2.1471
84.147285 89.289 -2.0978
84.757050 89.289 -2.0501
85.371231 89.289 -2.0035
85.989868 89.289 -1.9581
86.612984 89.289 -1.9137
87.240616 89.289 -1.8701
87.872803 89.289 -1.8273
88.509560 89.289 -1.7851
89.150940 89.289 -1.7434
89.796967 89.289 -1.7021
90.447670 89.289 -1.6608
91.103088 89.289 -1.6201
91.763260 89.289 -1.5804
92.428215 89.289 -1.5411
93.097992 89.289 -1.5015
93.772614 89.289 -1.4621
94.452133 89.289 -1.4230
95.136566 89.289 -1.3841
95.825966 89.289 -1.3455
96.520363 89.289 -1.3071
97.219788 89.289 -1.2691
97.924286 89.289 -1.2311
98.633881 89.289 -1.1926
99.348625 89.289 -1.1541
100.068542 89.289 -1.1160
100.793686 89.289 -1.0781
101.524078 89.289 -1.0402
102.259766 89.289 -1.0021
103.000778 89.289 -0.9636
103.747162 89.289 -0.9251
104.498962 89.289 -0.8867
105.256203 89.289 -0.8481
106.018929 89.289 -0.8087
106.787186 89.289 -0.7691
107.561012 89.289 -0.7297
108.340446 89.289 -0.6901
109.125526 89.289 -0.6498
109.916290 89.289 -0.6091
110.712791 89.289 -0.5683
111.515060 89.289 -0.5271
112.323143 89.289 -0.4854
113.137085 89.289 -0.4431
113.956924 89.289 -0.4000
114.782700 89.289 -0.3561
115.614464 89.289 -0.3115
116.452255 89.289 -0.2661
117.296112 89.289 -0.2201
118.146095 89.289 -0.1731
119.002228 89.289 -0.1248
119.864563 89.289 -0.0751
120.733154 89.289 -0.0239
121.608040 89.289 0.0289
122.489258 89.289 0.0833
123.376869 89.289 0.1399
124.270905 89.289 0.1988
125.171425 89.289 0.2609
126.078468 89.289 0.3268
126.992081 89.289 0.3968
127.912323 89.290 0.4715
128.839233 89.291 0.5508
129.772842 89.293 0.6357
130.713242 89.296 0.7238
131.660431 89.301 0.8141
132.614502 89.308 0.9037
133.575485 89.316 0.9890
134.543427 89.324 1.0708
135.518387 89.333 1.1490
136.500412 89.342 1.2239
137.489548 89.352 1.2961
138.485855 89.363 1.3648
139.489380 89.375 1.4291
140.500168 89.387 1.4899
141.518295 89.399 1.5469
142.543793 89.410 1.6029
143.576721 89.421 1.6613
144.617142 89.433 1.7189
145.665100 89.447 1.7742
146.720642 89.463 1.8249
147.783844 89.479 1.8673
148.854752 89.496 1.9029
149.933411 89.512 1.9321
151.019897 89.529 1.9540
152.114243 89.546 1.9672
153.216522 89.563 1.9730
154.326797 89.579 1.9708
155.445114 89.594 1.9650
156.571533 89.607 1.9604
157.706116 89.619 1.9560
158.848923 89.632 1.9521
160.000000 89.646 1.9490
161.159424 89.658 1.9466
162.327255 89.671 1.9460
163.503540 89.684 1.9496
164.688354 89.698 1.9530
165.881760 89.714 1.9525
167.083801 89.731 1.9480
168.294571 89.747 1.9375
169.514099 89.764 1.9230
170.742462 89.781 1.9065
171.979736 89.798 1.8861
173.225967 89.816 1.8604
174.481232 89.835 1.8301
175.745605 89.854 1.7956
177.019119 89.873 1.7561
178.301880 89.893 1.7115
179.593933 89.913 1.6601
180.895340 89.934 1.6000
182.206177 89.956 1.5322
183.526520 89.977 1.4569
184.856430 89.998 1.3742
186.195984 90.020 1.2842
187.545227 90.042 1.1862
188.904266 90.064 1.0799
190.273132 90.086 0.9653
191.651932 90.109 0.8437
193.040726 90.133 0.7114
194.439575 90.158 0.5658
195.848572 90.184 0.4045
197.267761 90.210 0.2243
198.697250 90.237 0.0245
200.137085 90.264 -0.1946
201.587372 90.291 -0.4394
203.048157 90.320 -0.7151
204.519531 90.349 -1.0250
206.001556 90.374 -1.3752
207.494324 90.397 -1.7630
208.997925 90.417 -2.1868
210.512405 90.432 -2.6499
212.037857 90.443 -3.1570
213.574371 90.446 -3.7027
215.122025 90.439 -4.2867
216.680893 90.420 -4.8973
218.251053 90.389 -5.5276
219.832581 90.345 -6.1632
221.425583 90.286 -6.7947
223.030121 90.211 -7.4005
224.646286 90.118 -7.9620
226.274170 90.010 -8.4598
227.913849 89.888 -8.8729
229.565399 89.754 -9.1873
231.228928 89.609 -9.3840
232.904510 89.458 -9.4580
234.592224 89.305 -9.3942
236.292191 89.153 -9.2037
238.004456 89.010 -8.8859
239.729126 88.876 -8.4603
241.466309 88.757 -7.9383
243.216080 88.654 -7.3437
244.978516 88.570 -6.6970
246.753738 88.503 -6.0200
248.541809 88.455 -5.3369
250.342850 88.423 -4.6609
252.156937 88.405 -4.0108
253.984161 88.400 -3.3946
255.824646 88.405 -2.8263
257.678467 88.418 -2.3072
259.545685 88.437 -1.8445
261.426483 88.459 -1.4350
263.320862 88.482 -1.0803
265.229004 88.505 -0.7728
267.150970 88.525 -0.5078
269.086853 88.543 -0.2786
271.036774 88.558 -0.0802
273.000824 88.569 0.0965
274.979095 88.573 0.2583
276.971710 88.571 0.4175
278.978760 88.564 0.5871
281.000336 88.553 0.7715
283.036591 88.539 0.9774
285.087585 88.523 1.2112
287.153442 88.503 1.4812
289.234283 88.483 1.7881
291.330200 88.467 2.1387
293.441284 88.454 2.5239
295.567688 88.447 2.9390
297.709503 88.446 3.3778
299.866821 88.452 3.8366
302.039795 88.465 4.3036
304.228485 88.488 4.7686
306.433044 88.519 5.2237
308.653595 88.556 5.6582
310.890228 88.598 6.0709
313.143066 88.645 6.4580
315.412231 88.697 6.8170
317.697845 88.751 7.1424
320.000000 88.808 7.4392
322.318848 88.864 7.7104
324.654510 88.922 7.9573
327.007080 88.982 8.1827
329.376709 89.044 8.3844
331.763519 89.106 8.5602
334.167603 89.168 8.7126
336.589142 89.230 8.8426
339.028198 89.293 8.9517
341.484924 89.355 9.0418
343.959473 89.418 9.1118
346.451935 89.481 9.1610
348.962463 89.544 9.1909
351.491211 89.606 9.2024
354.038239 89.667 9.1970
356.603760 89.728 9.1779
359.187866 89.790 9.1421
361.790680 89.852 9.0890
364.412354 89.915 9.0152
367.053040 89.979 8.9185
369.712860 90.044 8.7954
372.391968 90.109 8.6434
375.090454 90.174 8.4576
377.808533 90.240 8.2333
380.546265 90.305 7.9669
383.303864 90.367 7.6537
386.081451 90.427 7.2911
388.879150 90.483 6.8747
391.697144 90.532 6.4055
394.535522 90.573 5.8793
397.394501 90.602 5.3077
400.274170 90.618 4.6939
403.174744 90.617 4.0600
406.096313 90.597 3.4195
409.039062 90.557 2.8019
412.003113 90.496 2.2309
414.988647 90.416 1.7374
417.995850 90.316 1.3527
421.024811 90.201 1.0996
424.075714 90.074 1.0118
427.148743 89.943 1.0885
430.244049 89.815 1.3460
433.361786 89.695 1.7654
436.502106 89.590 2.3449
439.665161 89.506 3.0486
442.851166 89.451 3.8545
446.060242 89.424 4.7193
449.292572 89.429 5.6027
452.548340 89.461 6.4743
455.827698 89.520 7.2964
459.130798 89.601 8.0507
462.457855 89.701 8.7082
465.809021 89.816 9.2644
469.184448 89.938 9.7021
472.584381 90.067 10.0302
476.008911 90.196 10.2479
479.458252 90.325 10.3668
482.932617 90.450 10.3947
486.432159 90.573 10.3423
489.957031 90.690 10.2200
493.507477 90.802 10.0357
497.083618 90.909 9.7985
500.685699 91.012 9.5140
504.313873 91.109 9.1908
507.968323 91.203 8.8292
511.649292 91.295 8.4364
515.356934 91.387 8.0005
519.091370 91.479 7.5179
522.852966 91.572 6.9709
526.641724 91.666 6.3457
530.458008 91.757 5.6275
534.301941 91.842 4.7989
538.173706 91.918 3.8554
542.073547 91.980 2.7794
546.001648 92.020 1.5932
549.958191 92.030 0.2921
553.943420 92.003 -1.0596
557.957520 91.931 -2.4249
562.000671 91.815 -3.7258
566.073181 91.653 -4.8950
570.175171 91.448 -5.8632
574.306885 91.200 -6.5486
578.468567 90.925 -6.9213
582.660400 90.630 -6.9140
586.882568 90.334 -6.5569
591.135376 90.053 -5.8368
595.419006 89.799 -4.8170
599.733643 89.585 -3.5306
604.079590 89.417 -2.0554
608.456970 89.311 -0.4574
612.866089 89.259 1.1944
617.307190 89.261 2.8185
621.780457 89.308 4.3870
626.286133 89.389 5.8475
630.824463 89.502 7.1918
635.395691 89.638 8.3937
640.000000 89.793 9.4546
644.637695 89.959 10.3626
649.309021 90.133 11.1316
654.014160 90.310 11.7686
658.753418 90.489 12.2825
663.527039 90.670 12.6804
668.335205 90.849 12.9742
673.178284 91.023 13.1727
678.056396 91.191 13.2917
682.969849 91.355 13.3479
687.918945 91.515 13.3481
692.903870 91.672 13.3024
697.924927 91.825 13.2174
702.982422 91.975 13.1015
708.076477 92.122 12.9596
713.207520 92.269 12.7998
718.375732 92.416 12.6197
723.581360 92.565 12.4191
728.824707 92.715 12.1988
734.106079 92.867 11.9592
739.425720 93.022 11.7019
744.783936 93.181 11.4307
750.180908 93.346 11.1401
755.617065 93.521 10.8299
761.092529 93.706 10.4873
766.607727 93.904 10.1065
772.162903 94.118 9.6667
777.758301 94.351 9.1583
783.394287 94.604 8.5424
789.071045 94.882 7.7950
794.789001 95.182 6.8617
800.548340 95.505 5.6990
806.349487 95.843 4.2497
812.192627 96.192 2.4561
818.078125 96.539 0.2757
824.006226 96.873 -2.3514
829.977295 97.177 -5.4312
835.991699 97.437 -9.0076
842.049622 97.635 -13.0264
848.151428 97.757 -17.4971
854.297485 97.785 -22.2709
860.488098 97.701 -27.2746
866.723572 97.501 -32.2887
873.004211 97.173 -37.1501
879.330322 96.718 -41.6160
885.702332 96.126 -45.4490
892.120483 95.413 -48.4699
898.585144 94.578 -50.4227
905.096680 93.659 -51.3008
911.655396 92.674 -50.9607
918.261597 91.682 -49.5601
924.915710 90.725 -47.1219
931.618042 89.866 -43.9098
938.368896 89.176 -40.1019
945.168762 88.669 -35.9818
952.017822 88.399 -31.8297
958.916504 88.313 -27.8328
965.865234 88.393 -24.2550
972.864319 88.587 -21.1445
979.914062 88.848 -18.6580
987.014954 89.145 -16.7312
994.167236 89.431 -15.3885
1001.371399 89.701 -14.5193
1008.627747 89.935 -14.0531
1015.936646 90.134 -13.8922
1023.298584 90.292 -13.9384
1030.713867 90.414 -14.1233
1038.182739 90.501 -14.3553
