* Measurement data measured by REW V5.20.13
* Source: C:\Users\kurin\Desktop\Targets and Curves\Resolve\Img\Files\Powerbeats Pro_SPL.txt
* Format: Comma/Tab/Space delimited data
* Dated: Aug 14, 2023 6:29:43 PM
* REW Settings:
*  C-weighting compensation: Off
*  Target level: 75.0 dB
* Note: ; Measurement imported from C:\Users\kurin\Desktop\Targets and Curves\Resolve\Img\Files\Powerbeats Pro_SPL.txt Format: Comma/Tab/Space delimited data 623 values loaded, 5 Hz to 39,792 Hz log spaced 
* Measurement: Powerbeats Pro_SPL
* Smoothing: 1/48 octave
* Frequency Step: 1/96 octave
* Start Frequency: 5.000 Hz
*
* Freq(Hz) SPL(dB) Phase(degrees)
5.000000 99.485 -0.5100
5.036232 99.485 -0.5172
5.072727 99.486 -0.5250
5.109486 99.487 -0.5343
5.146511 99.488 -0.5450
5.183805 99.489 -0.5574
5.221369 99.490 -0.5710
5.259205 99.491 -0.5856
5.297316 99.492 -0.6010
5.335702 99.493 -0.6173
5.374367 99.494 -0.6340
5.413311 99.495 -0.6504
5.452538 99.496 -0.6670
5.492050 99.497 -0.6839
5.531847 99.499 -0.7010
5.571934 99.500 -0.7184
5.612310 99.501 -0.7360
5.652979 99.502 -0.7535
5.693943 99.503 -0.7710
5.735204 99.504 -0.7884
5.776763 99.506 -0.8060
5.818624 99.507 -0.8239
5.860788 99.508 -0.8420
5.903258 99.509 -0.8604
5.946035 99.510 -0.8790
5.989123 99.511 -0.8975
6.032523 99.513 -0.9160
6.076237 99.514 -0.9344
6.120268 99.515 -0.9530
6.164618 99.516 -0.9724
6.209289 99.517 -0.9920
6.254284 99.518 -1.0109
6.299605 99.519 -1.0300
6.345255 99.521 -1.0499
6.391235 99.522 -1.0700
6.437549 99.523 -1.0900
6.484198 99.524 -1.1100
6.531185 99.525 -1.1299
6.578513 99.526 -1.1500
6.626183 99.527 -1.1709
6.674199 99.529 -1.1920
6.722563 99.530 -1.2124
6.771278 99.531 -1.2330
6.820345 99.532 -1.2544
6.869768 99.533 -1.2760
6.919549 99.535 -1.2975
6.969691 99.536 -1.3190
7.020196 99.537 -1.3404
7.071068 99.538 -1.3620
7.122308 99.539 -1.3844
7.173919 99.540 -1.4070
7.225904 99.541 -1.4295
7.278266 99.542 -1.4520
7.331007 99.543 -1.4744
7.384131 99.545 -1.4970
7.437639 99.546 -1.5204
7.491535 99.547 -1.5440
7.545822 99.548 -1.5674
7.600502 99.549 -1.5910
7.655579 99.551 -1.6149
7.711054 99.552 -1.6390
7.766932 99.553 -1.6629
7.823214 99.554 -1.6870
7.879904 99.555 -1.7114
7.937005 99.556 -1.7360
7.994520 99.557 -1.7609
8.052452 99.559 -1.7860
8.110803 99.560 -1.8114
8.169578 99.561 -1.8370
8.228777 99.562 -1.8629
8.288406 99.563 -1.8890
8.348468 99.564 -1.9149
8.408964 99.565 -1.9410
8.469899 99.566 -1.9674
8.531276 99.568 -1.9940
8.593097 99.569 -2.0209
8.655366 99.570 -2.0480
8.718086 99.571 -2.0754
8.781260 99.572 -2.1030
8.844893 99.573 -2.1304
8.908987 99.575 -2.1580
8.973545 99.576 -2.1864
9.038571 99.577 -2.2150
9.104069 99.578 -2.2434
9.170040 99.579 -2.2720
9.236490 99.580 -2.3009
9.303422 99.582 -2.3300
9.370838 99.583 -2.3594
9.438744 99.584 -2.3890
9.507140 99.585 -2.4189
9.576033 99.586 -2.4490
9.645425 99.587 -2.4794
9.715320 99.589 -2.5100
9.785721 99.590 -2.5409
9.856632 99.591 -2.5720
9.928058 99.592 -2.6034
10.000000 99.593 -2.6350
10.072464 99.594 -2.6668
10.145453 99.595 -2.6990
10.218971 99.596 -2.7314
10.293022 99.598 -2.7640
10.367610 99.599 -2.7969
10.442738 99.600 -2.8300
10.518411 99.601 -2.8634
10.594631 99.602 -2.8970
10.671404 99.604 -2.9309
10.748734 99.605 -2.9650
10.826623 99.606 -2.9994
10.905077 99.607 -3.0340
10.984100 99.608 -3.0688
11.063695 99.609 -3.1040
11.143867 99.610 -3.1393
11.224621 99.612 -3.1750
11.305959 99.613 -3.2114
11.387886 99.614 -3.2480
11.470407 99.615 -3.2844
11.553527 99.616 -3.3210
11.637249 99.617 -3.3583
11.721577 99.618 -3.3960
11.806517 99.619 -3.4338
11.892071 99.621 -3.4720
11.978246 99.622 -3.5104
12.065045 99.623 -3.5490
12.152473 99.624 -3.5878
12.240536 99.625 -3.6270
12.329235 99.626 -3.6668
12.418578 99.628 -3.7070
12.508568 99.629 -3.7473
12.599211 99.630 -3.7880
12.690510 99.631 -3.8293
12.782471 99.632 -3.8710
12.875097 99.633 -3.9123
12.968395 99.635 -3.9540
13.062370 99.636 -3.9962
13.157025 99.637 -4.0390
13.252366 99.638 -4.0823
13.348398 99.639 -4.1260
13.445127 99.640 -4.1698
13.542556 99.641 -4.2139
13.640691 99.642 -4.2583
13.739536 99.644 -4.3030
13.839099 99.645 -4.3482
13.939383 99.646 -4.3940
14.040393 99.647 -4.4403
14.142136 99.648 -4.4870
14.244616 99.649 -4.5338
14.347837 99.651 -4.5810
14.451808 99.652 -4.6288
14.556532 99.653 -4.6770
14.662014 99.654 -4.7253
14.768262 99.655 -4.7739
14.875278 99.656 -4.8232
14.983070 99.658 -4.8729
15.091644 99.659 -4.9232
15.201005 99.660 -4.9740
15.311157 99.661 -5.0252
15.422109 99.662 -5.0770
15.533863 99.663 -5.1293
15.646428 99.664 -5.1820
15.759809 99.665 -5.2347
15.874010 99.667 -5.2880
15.989040 99.668 -5.3422
16.104904 99.669 -5.3970
16.221605 99.670 -5.4517
16.339155 99.671 -5.5069
16.457554 99.673 -5.5631
16.576813 99.674 -5.6200
16.696936 99.675 -5.6773
16.817928 99.676 -5.7350
16.939798 99.677 -5.7927
17.062551 99.678 -5.8509
17.186193 99.679 -5.9101
17.310732 99.681 -5.9700
17.436172 99.682 -6.0307
17.562521 99.683 -6.0920
17.689787 99.684 -6.1531
17.817974 99.685 -6.2149
17.947090 99.686 -6.2781
18.077143 99.687 -6.3420
18.208138 99.688 -6.4062
18.340080 99.690 -6.4709
18.472980 99.691 -6.5361
18.606844 99.692 -6.6020
18.741676 99.693 -6.6685
18.877487 99.694 -6.7359
19.014280 99.695 -6.8045
19.152065 99.697 -6.8739
19.290850 99.698 -6.9440
19.430639 99.699 -7.0150
19.571442 99.700 -7.0870
19.713264 99.701 -7.1599
19.856115 99.702 -7.2336
20.000000 99.703 -7.3079
20.144928 99.704 -7.3827
20.290907 99.704 -7.4579
20.437943 99.704 -7.5339
20.586044 99.705 -7.6099
20.735220 99.706 -7.6857
20.885475 99.706 -7.7609
21.036821 99.706 -7.8351
21.189262 99.706 -7.9079
21.342808 99.706 -7.9790
21.497467 99.706 -8.0479
21.653246 99.707 -8.1137
21.810154 99.708 -8.1779
21.968201 99.711 -8.2402
22.127390 99.715 -8.3049
22.287735 99.722 -8.3747
22.449242 99.730 -8.4549
22.611917 99.740 -8.5521
22.775772 99.750 -8.6649
22.940815 99.758 -8.7957
23.107054 99.764 -8.9388
23.274498 99.767 -9.0905
23.443153 99.768 -9.2468
23.613033 99.766 -9.4041
23.784142 99.762 -9.5579
23.956491 99.755 -9.7031
24.130091 99.746 -9.8369
24.304947 99.736 -9.9532
24.481071 99.727 -10.0569
24.658470 99.719 -10.1489
24.837156 99.713 -10.2349
25.017136 99.710 -10.3203
25.198421 99.708 -10.4069
25.381020 99.707 -10.4986
25.564941 99.706 -10.5949
25.750195 99.706 -10.6966
25.936790 99.706 -10.8039
26.124741 99.706 -10.9171
26.314051 99.706 -11.0358
26.504732 99.706 -11.1591
26.696796 99.706 -11.2888
26.890253 99.706 -11.4262
27.085112 99.706 -11.5718
27.281382 99.705 -11.7270
27.479073 99.703 -11.8908
27.678198 99.699 -12.0639
27.878765 99.693 -12.2427
28.080786 99.684 -12.4261
28.284271 99.671 -12.6068
28.489231 99.654 -12.7778
28.695675 99.635 -12.9368
28.903616 99.616 -13.0785
29.113064 99.595 -13.2048
29.324028 99.573 -13.3171
29.536524 99.551 -13.4119
29.750557 99.527 -13.4851
29.966141 99.505 -13.5409
30.183289 99.487 -13.5803
30.402010 99.472 -13.6100
30.622314 99.459 -13.6377
30.844217 99.448 -13.6620
31.067726 99.437 -13.6837
31.292856 99.428 -13.7030
31.519617 99.422 -13.7192
31.748020 99.418 -13.7360
31.978081 99.416 -13.7562
32.209808 99.417 -13.7810
32.443211 99.419 -13.8104
32.678310 99.424 -13.8499
32.915108 99.433 -13.9029
33.153625 99.444 -13.9759
33.393871 99.457 -14.0770
33.635857 99.470 -14.2048
33.879597 99.481 -14.3623
34.125103 99.490 -14.5447
34.372387 99.496 -14.7522
34.621464 99.497 -14.9737
34.872345 99.491 -15.2031
35.125042 99.478 -15.4257
35.379574 99.458 -15.6260
35.635948 99.435 -15.8008
35.894180 99.411 -15.9396
36.154285 99.387 -16.0489
36.416275 99.366 -16.1275
36.680161 99.349 -16.1879
36.945961 99.338 -16.2377
37.213688 99.332 -16.2899
37.483353 99.332 -16.3599
37.754974 99.334 -16.4488
38.028561 99.336 -16.5656
38.304131 99.336 -16.7018
38.581699 99.333 -16.8545
38.861279 99.328 -17.0167
39.142883 99.320 -17.1839
39.426529 99.309 -17.3468
39.712231 99.293 -17.4950
40.000000 99.275 -17.6268
40.289856 99.258 -17.7325
40.581814 99.244 -17.8259
40.875885 99.235 -17.9157
41.172089 99.229 -18.0079
41.470440 99.224 -18.1146
41.770950 99.219 -18.2258
42.073643 99.211 -18.3354
42.378525 99.203 -18.4429
42.685616 99.198 -18.5423
42.994934 99.196 -18.6439
43.306492 99.197 -18.7546
43.620308 99.200 -18.8778
43.936401 99.205 -19.0176
44.254780 99.211 -19.1787
44.575470 99.220 -19.3653
44.898483 99.230 -19.5836
45.223835 99.239 -19.8450
45.551544 99.244 -20.1386
45.881630 99.241 -20.4651
46.214108 99.230 -20.8015
46.548996 99.208 -21.1266
46.886307 99.179 -21.4355
47.226067 99.149 -21.7142
47.568283 99.117 -21.9696
47.912983 99.084 -22.2046
48.260181 99.049 -22.4177
48.609894 99.013 -22.6045
48.962143 98.979 -22.7768
49.316940 98.952 -22.9411
49.674313 98.927 -23.1077
50.034271 98.901 -23.2948
50.396843 98.873 -23.4847
50.762039 98.837 -23.6682
51.129883 98.799 -23.8377
51.500389 98.761 -23.9798
51.873581 98.723 -24.1038
52.249481 98.688 -24.2154
52.628101 98.654 -24.3129
53.009464 98.618 -24.3936
53.393593 98.585 -24.4659
53.780506 98.559 -24.5345
54.170223 98.536 -24.6079
54.562763 98.513 -24.7004
54.958145 98.489 -24.7988
55.356396 98.461 -24.8919
55.757530 98.433 -24.9878
56.161572 98.412 -25.0939
56.568542 98.390 -25.2018
56.978462 98.356 -25.3111
57.391350 98.319 -25.4049
57.807232 98.283 -25.4596
58.226128 98.249 -25.4940
58.648056 98.223 -25.5185
59.073048 98.199 -25.5340
59.501114 98.174 -25.5417
59.932281 98.153 -25.5510
60.366577 98.142 -25.5692
60.804020 98.135 -25.6039
61.244629 98.126 -25.6702
61.688435 98.116 -25.7528
62.135452 98.103 -25.8400
62.585712 98.090 -25.9358
63.039234 98.080 -26.0409
63.496040 98.070 -26.1538
63.956161 98.056 -26.2744
64.419617 98.042 -26.3998
64.886421 98.030 -26.5224
65.356621 98.019 -26.6558
65.830215 98.012 -26.8114
66.307251 98.004 -26.9876
66.787743 97.993 -27.1897
67.271713 97.978 -27.4086
67.759193 97.960 -27.6391
68.250206 97.937 -27.8746
68.744774 97.909 -28.1098
69.242928 97.876 -28.3356
69.744690 97.838 -28.5411
70.250084 97.798 -28.7257
70.759148 97.757 -28.8823
71.271896 97.717 -29.0198
71.788361 97.681 -29.1437
72.308571 97.645 -29.2558
72.832550 97.608 -29.3589
73.360321 97.573 -29.4558
73.891922 97.542 -29.5487
74.427376 97.513 -29.6418
74.966705 97.484 -29.7424
75.509949 97.454 -29.8438
76.057121 97.423 -29.9395
76.608261 97.393 -30.0368
77.163399 97.369 -30.1388
77.722557 97.346 -30.2518
78.285767 97.322 -30.3877
78.853058 97.295 -30.5327
79.424461 97.263 -30.6778
80.000000 97.229 -30.8197
80.579712 97.196 -30.9504
81.163628 97.162 -31.0758
81.751770 97.129 -31.1999
82.344177 97.095 -31.3208
82.940880 97.061 -31.4366
83.541901 97.027 -31.5508
84.147285 96.995 -31.6638
84.757050 96.964 -31.7818
85.371231 96.934 -31.9102
85.989868 96.904 -32.0507
86.612984 96.874 -32.2091
87.240616 96.842 -32.3777
87.872803 96.804 -32.5543
88.509560 96.761 -32.7277
89.150940 96.714 -32.8859
89.796967 96.665 -33.0277
90.447670 96.615 -33.1448
91.103088 96.564 -33.2458
91.763260 96.517 -33.3376
92.428215 96.469 -33.4178
93.097992 96.418 -33.4859
93.772614 96.368 -33.5429
94.452133 96.322 -33.5877
95.136566 96.278 -33.6259
95.825966 96.233 -33.6645
96.520363 96.189 -33.6989
97.219788 96.145 -33.7263
97.924286 96.102 -33.7490
98.633881 96.061 -33.7679
99.348625 96.021 -33.7850
100.068542 95.982 -33.8014
100.793686 95.944 -33.8200
101.524078 95.909 -33.8409
102.259766 95.876 -33.8729
103.000778 95.846 -33.9270
103.747162 95.816 -33.9969
104.498962 95.780 -34.0816
105.256203 95.742 -34.1758
106.018929 95.703 -34.2747
106.787186 95.662 -34.3758
107.561012 95.617 -34.4789
108.340446 95.567 -34.5719
109.125526 95.512 -34.6419
109.916290 95.455 -34.6909
110.712791 95.400 -34.7158
111.515060 95.346 -34.7190
112.323143 95.291 -34.7007
113.137085 95.238 -34.6651
113.956924 95.190 -34.6126
114.782700 95.146 -34.5551
115.614464 95.107 -34.5051
116.452255 95.071 -34.4621
117.296112 95.034 -34.4289
118.146095 94.999 -34.4080
119.002228 94.968 -34.4016
119.864563 94.938 -34.4129
120.733154 94.906 -34.4511
121.608040 94.870 -34.5019
122.489258 94.829 -34.5534
123.376869 94.785 -34.6079
124.270905 94.744 -34.6638
125.171425 94.701 -34.7199
126.078468 94.651 -34.7791
126.992081 94.597 -34.8269
127.912323 94.540 -34.8486
128.839233 94.482 -34.8480
129.772842 94.425 -34.8221
130.713242 94.369 -34.7771
131.660431 94.315 -34.7177
132.614502 94.263 -34.6452
133.575485 94.212 -34.5614
134.543427 94.163 -34.4702
135.518387 94.119 -34.3737
136.500412 94.078 -34.2792
137.489548 94.040 -34.1942
138.485855 94.003 -34.1202
139.489380 93.968 -34.0598
140.500168 93.934 -34.0171
141.518295 93.902 -33.9978
142.543793 93.869 -33.9990
143.576721 93.832 -34.0251
144.617142 93.789 -34.0599
145.665100 93.739 -34.0900
146.720642 93.685 -34.1120
147.783844 93.631 -34.1184
148.854752 93.574 -34.1081
149.933411 93.511 -34.0804
151.019897 93.446 -34.0252
152.114243 93.379 -33.9284
153.216522 93.314 -33.8014
154.326797 93.255 -33.6468
155.445114 93.200 -33.4774
156.571533 93.151 -33.3061
157.706116 93.105 -33.1354
158.848923 93.061 -32.9713
160.000000 93.019 -32.8164
161.159424 92.980 -32.6771
162.327255 92.941 -32.5483
163.503540 92.899 -32.4284
164.688354 92.855 -32.3122
165.881760 92.812 -32.1939
167.083801 92.767 -32.0733
168.294571 92.721 -31.9500
169.514099 92.673 -31.8193
170.742462 92.625 -31.6761
171.979736 92.576 -31.5224
173.225967 92.529 -31.3584
174.481232 92.483 -31.1844
175.745605 92.436 -30.9999
177.019119 92.391 -30.8075
178.301880 92.350 -30.6050
179.593933 92.313 -30.4055
180.895340 92.281 -30.2238
182.206177 92.249 -30.0524
183.526520 92.211 -29.8915
184.856430 92.172 -29.7334
186.195984 92.135 -29.5688
187.545227 92.099 -29.4024
188.904266 92.062 -29.2352
190.273132 92.026 -29.0684
191.651932 91.992 -28.9017
193.040726 91.958 -28.7404
194.439575 91.926 -28.5895
195.848572 91.893 -28.4494
197.267761 91.860 -28.3216
198.697250 91.826 -28.2083
200.137085 91.792 -28.1156
201.587372 91.754 -28.0322
203.048157 91.708 -27.9552
204.519531 91.654 -27.8643
206.001556 91.593 -27.7403
207.494324 91.528 -27.5765
208.997925 91.460 -27.3570
210.512405 91.393 -27.0897
212.037857 91.332 -26.7692
213.574371 91.278 -26.4189
215.122025 91.236 -26.0567
216.680893 91.201 -25.6940
218.251053 91.170 -25.3471
219.832581 91.144 -25.0179
221.425583 91.123 -24.7159
223.030121 91.102 -24.4347
224.646286 91.078 -24.1757
226.274170 91.052 -23.9246
227.913849 91.023 -23.6665
229.565399 90.994 -23.4047
231.228928 90.968 -23.1360
232.904510 90.944 -22.8658
234.592224 90.920 -22.5965
236.292191 90.899 -22.3337
238.004456 90.883 -22.0801
239.729126 90.869 -21.8466
241.466309 90.857 -21.6493
243.216080 90.842 -21.4744
244.978516 90.820 -21.3174
246.753738 90.793 -21.1674
248.541809 90.764 -21.0129
250.342850 90.732 -20.8515
252.156937 90.695 -20.6789
253.984161 90.655 -20.4895
255.824646 90.614 -20.2731
257.678467 90.573 -20.0386
259.545685 90.536 -19.7896
261.426483 90.500 -19.5326
263.320862 90.464 -19.2781
265.229004 90.428 -19.0177
267.150970 90.389 -18.7465
269.086853 90.349 -18.4648
271.036774 90.312 -18.1732
273.000824 90.274 -17.8659
274.979095 90.231 -17.5400
276.971710 90.188 -17.1881
278.978760 90.147 -16.7970
281.000336 90.109 -16.3812
283.036591 90.079 -15.9486
285.087585 90.054 -15.5064
287.153442 90.033 -15.0633
289.234283 90.016 -14.6212
291.330200 90.003 -14.1814
293.441284 89.995 -13.7531
295.567688 89.993 -13.3483
297.709503 89.992 -12.9600
299.866821 89.987 -12.5874
302.039795 89.982 -12.2241
304.228485 89.980 -11.8615
306.433044 89.979 -11.5050
308.653595 89.978 -11.1581
310.890228 89.978 -10.8179
313.143066 89.978 -10.4820
315.412231 89.979 -10.1519
317.697845 89.981 -9.8269
320.000000 89.985 -9.5109
322.318848 89.990 -9.2090
324.654510 89.994 -8.9169
327.007080 89.996 -8.6331
329.376709 89.997 -8.3549
331.763519 89.999 -8.0788
334.167603 90.000 -7.8049
336.589142 90.000 -7.5320
339.028198 90.000 -7.2598
341.484924 90.000 -6.9872
343.959473 90.000 -6.7148
346.451935 90.000 -6.4426
348.962463 90.000 -6.1708
351.491211 90.000 -5.8998
354.038239 90.000 -5.6288
356.603760 90.000 -5.3572
359.187866 90.000 -5.0848
361.790680 90.000 -4.8115
364.412354 90.000 -4.5368
367.053040 90.000 -4.2603
369.712860 90.000 -3.9819
372.391968 90.001 -3.7013
375.090454 90.002 -3.4178
377.808533 90.003 -3.1295
380.546265 90.004 -2.8389
383.303864 90.008 -2.5470
386.081451 90.013 -2.2558
388.879150 90.018 -1.9675
391.697144 90.025 -1.6829
394.535522 90.033 -1.4020
397.394501 90.042 -1.1298
400.274170 90.053 -0.8734
403.174744 90.062 -0.6258
406.096313 90.066 -0.3857
409.039062 90.068 -0.1428
412.003113 90.068 0.1144
414.988647 90.066 0.3841
417.995850 90.065 0.6678
421.024811 90.064 0.9680
424.075714 90.063 1.2894
427.148743 90.063 1.6279
430.244049 90.068 1.9836
433.361786 90.077 2.3488
436.502106 90.090 2.7180
439.665161 90.107 3.0849
442.851166 90.130 3.4440
446.060242 90.157 3.7870
449.292572 90.188 4.1021
452.548340 90.221 4.3931
455.827698 90.252 4.6590
459.130798 90.283 4.9032
462.457855 90.313 5.1279
465.809021 90.342 5.3364
469.184448 90.368 5.5294
472.584381 90.390 5.7164
476.008911 90.408 5.9047
479.458252 90.423 6.1014
482.932617 90.436 6.3167
486.432159 90.449 6.5492
489.957031 90.464 6.8046
493.507477 90.482 7.0722
497.083618 90.505 7.3460
500.685699 90.533 7.6171
504.313873 90.566 7.8769
507.968323 90.602 8.1183
511.649292 90.641 8.3320
515.356934 90.682 8.5164
519.091370 90.722 8.6637
522.852966 90.761 8.7826
526.641724 90.794 8.8773
530.458008 90.823 8.9538
534.301941 90.850 9.0169
538.173706 90.873 9.0738
542.073547 90.888 9.1297
546.001648 90.898 9.1957
549.958191 90.904 9.2852
553.943420 90.908 9.3966
557.957520 90.911 9.5345
562.000671 90.915 9.6944
566.073181 90.920 9.8747
570.175171 90.926 10.0713
574.306885 90.936 10.2807
578.468567 90.948 10.4992
582.660400 90.961 10.7242
586.882568 90.977 10.9492
591.135376 90.998 11.1672
595.419006 91.021 11.3773
599.733643 91.042 11.5730
604.079590 91.063 11.7643
608.456970 91.081 11.9596
612.866089 91.098 12.1583
617.307190 91.118 12.3635
621.780457 91.139 12.5723
626.286133 91.160 12.7822
630.824463 91.182 12.9953
635.395691 91.205 13.2143
640.000000 91.230 13.4352
644.637695 91.258 13.6569
649.309021 91.289 13.8743
654.014160 91.322 14.0826
658.753418 91.357 14.2794
663.527039 91.394 14.4622
668.335205 91.434 14.6255
673.178284 91.476 14.7619
678.056396 91.517 14.8737
682.969849 91.554 14.9563
687.918945 91.588 15.0228
692.903870 91.615 15.0849
697.924927 91.640 15.1428
702.982422 91.665 15.1986
708.076477 91.687 15.2578
713.207520 91.702 15.3229
718.375732 91.713 15.4047
723.581360 91.722 15.5179
728.824707 91.732 15.6525
734.106079 91.747 15.8062
739.425720 91.764 15.9704
744.783936 91.782 16.1350
750.180908 91.802 16.3024
755.617065 91.822 16.4711
761.092529 91.842 16.6424
766.607727 91.863 16.8179
772.162903 91.886 16.9954
777.758301 91.910 17.1740
783.394287 91.935 17.3514
789.071045 91.962 17.5245
794.789001 91.989 17.6944
800.548340 92.016 17.8612
806.349487 92.043 18.0244
812.192627 92.071 18.1819
818.078125 92.099 18.3394
824.006226 92.122 18.5029
829.977295 92.145 18.6704
835.991699 92.173 18.8432
842.049622 92.203 19.0174
848.151428 92.230 19.1851
854.297485 92.257 19.3583
860.488098 92.281 19.5476
866.723572 92.306 19.7502
873.004211 92.334 19.9731
879.330322 92.367 20.1982
885.702332 92.409 20.4096
892.120483 92.454 20.6073
898.585144 92.495 20.7816
905.096680 92.535 20.9454
911.655396 92.574 21.1115
918.261597 92.614 21.2714
