* Measurement data measured by REW V5.20.13
* Source: C:\Users\kurin\Desktop\Targets and Curves\Resolve\Img\Files\HiFiMAN_Svanar_5128_SPL.txt
* Format: Comma/Tab/Space delimited data
* Dated: Aug 14, 2023 5:28:33 PM
* REW Settings:
*  C-weighting compensation: Off
*  Target level: 75.0 dB
* Note: ; Measurement imported from C:\Users\kurin\Desktop\Targets and Curves\Resolve\Img\Files\HiFiMAN_Svanar_5128_SPL.txt Format: Comma/Tab/Space delimited data 623 values loaded, 5 Hz to 39,792 Hz log spaced 
* Measurement: HiFiMAN_Svanar_5128_SPL
* Smoothing: 1/48 octave
* Frequency Step: 1/96 octave
* Start Frequency: 5.000 Hz
*
* Freq(Hz) SPL(dB) Phase(degrees)
5.000000 91.368 5.8080
5.036232 91.370 5.8046
5.072727 91.372 5.8010
5.109486 91.375 5.7973
5.146511 91.378 5.7930
5.183805 91.382 5.7878
5.221369 91.386 5.7820
5.259205 91.390 5.7761
5.297316 91.394 5.7700
5.335702 91.398 5.7636
5.374367 91.403 5.7570
5.413311 91.407 5.7500
5.452538 91.412 5.7430
5.492050 91.417 5.7364
5.531847 91.422 5.7300
5.571934 91.427 5.7236
5.612310 91.431 5.7170
5.652979 91.435 5.7101
5.693943 91.440 5.7030
5.735204 91.445 5.6960
5.776763 91.450 5.6890
5.818624 91.455 5.6820
5.860788 91.459 5.6750
5.903258 91.464 5.6681
5.946035 91.468 5.6610
5.989123 91.472 5.6536
6.032523 91.477 5.6460
6.076237 91.482 5.6385
6.120268 91.487 5.6310
6.164618 91.492 5.6235
6.209289 91.496 5.6160
6.254284 91.500 5.6085
6.299605 91.505 5.6010
6.345255 91.509 5.5936
6.391235 91.514 5.5860
6.437549 91.519 5.5780
6.484198 91.524 5.5700
6.531185 91.529 5.5625
6.578513 91.533 5.5550
6.626183 91.537 5.5471
6.674199 91.542 5.5390
6.722563 91.546 5.5305
6.771278 91.551 5.5220
6.820345 91.556 5.5140
6.869768 91.561 5.5060
6.919549 91.566 5.4976
6.969691 91.570 5.4890
7.020196 91.574 5.4805
7.071068 91.579 5.4720
7.122308 91.584 5.4635
7.173919 91.589 5.4550
7.225904 91.594 5.4466
7.278266 91.598 5.4380
7.331007 91.603 5.4291
7.384131 91.607 5.4200
7.437639 91.611 5.4110
7.491535 91.616 5.4020
7.545822 91.621 5.3931
7.600502 91.626 5.3840
7.655579 91.631 5.3745
7.711054 91.635 5.3650
7.766932 91.639 5.3560
7.823214 91.644 5.3470
7.879904 91.648 5.3376
7.937005 91.653 5.3280
7.994520 91.658 5.3180
8.052452 91.663 5.3080
8.110803 91.668 5.2985
8.169578 91.672 5.2890
8.228777 91.676 5.2791
8.288406 91.681 5.2690
8.348468 91.686 5.2591
8.408964 91.691 5.2490
8.469899 91.696 5.2386
8.531276 91.700 5.2280
8.593097 91.704 5.2175
8.655366 91.709 5.2070
8.718086 91.713 5.1965
8.781260 91.718 5.1860
8.844893 91.723 5.1756
8.908987 91.728 5.1650
8.973545 91.733 5.1541
9.038571 91.737 5.1430
9.104069 91.742 5.1320
9.170040 91.746 5.1210
9.236490 91.750 5.1101
9.303422 91.755 5.0990
9.370838 91.760 5.0876
9.438744 91.765 5.0760
9.507140 91.770 5.0645
9.576033 91.774 5.0530
9.645425 91.778 5.0416
9.715320 91.783 5.0300
9.785721 91.788 5.0181
9.856632 91.793 5.0060
9.928058 91.798 4.9941
10.000000 91.802 4.9820
10.072464 91.806 4.9696
10.145453 91.811 4.9570
10.218971 91.815 4.9445
10.293022 91.820 4.9320
10.367610 91.825 4.9195
10.442738 91.830 4.9070
10.518411 91.835 4.8946
10.594631 91.839 4.8820
10.671404 91.843 4.8691
10.748734 91.848 4.8560
10.826623 91.852 4.8426
10.905077 91.857 4.8290
10.984100 91.862 4.8155
11.063695 91.867 4.8020
11.143867 91.872 4.7885
11.224621 91.876 4.7750
11.305959 91.881 4.7616
11.387886 91.885 4.7480
11.470407 91.889 4.7341
11.553527 91.894 4.7200
11.637249 91.899 4.7056
11.721577 91.904 4.6910
11.806517 91.909 4.6765
11.892071 91.913 4.6620
11.978246 91.917 4.6476
12.065045 91.922 4.6330
12.152473 91.927 4.6181
12.240536 91.932 4.6030
12.329235 91.937 4.5881
12.418578 91.941 4.5730
12.508568 91.945 4.5576
12.599211 91.950 4.5420
12.690510 91.954 4.5266
12.782471 91.959 4.5110
12.875097 91.964 4.4951
12.968395 91.969 4.4790
13.062370 91.974 4.4631
13.157025 91.978 4.4470
13.252366 91.982 4.4306
13.348398 91.987 4.4140
13.445127 91.991 4.3976
13.542556 91.996 4.3810
13.640691 92.001 4.3641
13.739536 92.006 4.3470
13.839099 92.011 4.3296
13.939383 92.015 4.3120
14.040393 92.019 4.2945
14.142136 92.024 4.2770
14.244616 92.029 4.2596
14.347837 92.034 4.2420
14.451808 92.039 4.2241
14.556532 92.043 4.2060
14.662014 92.048 4.1876
14.768262 92.052 4.1690
14.875278 92.056 4.1501
14.983070 92.061 4.1310
15.091644 92.066 4.1116
15.201005 92.071 4.0920
15.311157 92.076 4.0726
15.422109 92.080 4.0530
15.533863 92.084 4.0331
15.646428 92.089 4.0130
15.759809 92.093 3.9926
15.874010 92.098 3.9720
15.989040 92.103 3.9511
16.104904 92.108 3.9300
16.221605 92.113 3.9091
16.339155 92.117 3.8880
16.457554 92.121 3.8661
16.576813 92.126 3.8440
16.696936 92.130 3.8221
16.817928 92.135 3.8000
16.939798 92.140 3.7771
17.062551 92.145 3.7540
17.186193 92.150 3.7311
17.310732 92.154 3.7080
17.436172 92.158 3.6842
17.562521 92.163 3.6600
17.689787 92.168 3.6357
17.817974 92.173 3.6110
17.947090 92.178 3.5857
18.077143 92.182 3.5600
18.208138 92.187 3.5343
18.340080 92.191 3.5080
18.472980 92.195 3.4810
18.606844 92.200 3.4530
18.741676 92.205 3.4240
18.877487 92.210 3.3940
19.014280 92.215 3.3636
19.152065 92.219 3.3320
19.290850 92.223 3.2987
19.430639 92.227 3.2640
19.571442 92.231 3.2278
19.713264 92.235 3.1910
19.856115 92.238 3.1544
20.000000 92.240 3.1180
20.144928 92.242 3.0823
20.290907 92.244 3.0480
20.437943 92.245 3.0158
20.586044 92.246 2.9860
20.735220 92.246 2.9594
20.885475 92.246 2.9360
21.036821 92.246 2.9161
21.189262 92.247 2.9000
21.342808 92.247 2.8883
21.497467 92.247 2.8810
21.653246 92.247 2.8786
21.810154 92.248 2.8810
21.968201 92.249 2.8891
22.127390 92.251 2.9010
22.287735 92.255 2.9158
22.449242 92.261 2.9310
22.611917 92.267 2.9441
22.775772 92.275 2.9540
22.940815 92.284 2.9594
23.107054 92.294 2.9580
23.274498 92.305 2.9465
23.443153 92.316 2.9260
23.613033 92.326 2.8957
23.784142 92.335 2.8590
23.956491 92.343 2.8184
24.130091 92.349 2.7760
24.304947 92.355 2.7345
24.481071 92.359 2.6960
24.658470 92.362 2.6633
24.837156 92.364 2.6380
25.017136 92.367 2.6241
25.198421 92.370 2.6180
25.381020 92.375 2.6187
25.564941 92.382 2.6220
25.750195 92.392 2.6246
25.936790 92.404 2.6220
26.124741 92.418 2.6095
26.314051 92.434 2.5840
26.504732 92.451 2.5405
26.696796 92.467 2.4801
26.890253 92.482 2.4009
27.085112 92.496 2.3071
27.281382 92.507 2.2007
27.479073 92.516 2.0872
27.678198 92.520 1.9705
27.878765 92.521 1.8572
28.080786 92.519 1.7546
28.284271 92.515 1.6631
28.489231 92.510 1.5860
28.695675 92.505 1.5221
28.903616 92.499 1.4714
29.113064 92.494 1.4330
29.324028 92.489 1.4074
29.536524 92.486 1.3910
29.750557 92.484 1.3806
29.966141 92.484 1.3760
30.183289 92.484 1.3764
30.402010 92.485 1.3810
30.622314 92.489 1.3895
30.844217 92.494 1.3990
31.067726 92.501 1.4071
31.292856 92.509 1.4120
31.519617 92.519 1.4127
31.748020 92.532 1.4050
31.978081 92.547 1.3850
32.209808 92.563 1.3511
32.443211 92.579 1.2995
32.678310 92.594 1.2331
32.915108 92.608 1.1524
33.153625 92.621 1.0601
33.393871 92.632 0.9585
33.635857 92.641 0.8502
33.879597 92.647 0.7378
34.125103 92.652 0.6242
34.372387 92.655 0.5130
34.621464 92.656 0.4042
34.872345 92.656 0.2991
35.125042 92.656 0.1971
35.379574 92.655 0.0979
35.635948 92.653 0.0021
35.894180 92.650 -0.0899
36.154285 92.645 -0.1769
36.416275 92.640 -0.2569
36.680161 92.634 -0.3309
36.945961 92.628 -0.3990
37.213688 92.622 -0.4609
37.483353 92.614 -0.5174
37.754974 92.606 -0.5659
38.028561 92.597 -0.6049
38.304131 92.587 -0.6320
38.581699 92.577 -0.6451
38.861279 92.566 -0.6420
39.142883 92.555 -0.6190
39.426529 92.546 -0.5781
39.712231 92.540 -0.5185
40.000000 92.537 -0.4451
40.289856 92.538 -0.3601
40.581814 92.544 -0.2711
40.875885 92.555 -0.1837
41.172089 92.571 -0.1061
41.470440 92.591 -0.0489
41.770950 92.614 -0.0100
42.073643 92.636 0.0085
42.378525 92.660 0.0080
42.685616 92.686 -0.0110
42.994934 92.712 -0.0479
43.306492 92.736 -0.1032
43.620308 92.760 -0.1729
43.936401 92.783 -0.2526
44.254780 92.806 -0.3448
44.575470 92.830 -0.4509
44.898483 92.853 -0.5708
45.223835 92.874 -0.7063
45.551544 92.893 -0.8528
45.881630 92.910 -1.0065
46.214108 92.926 -1.1667
46.548996 92.941 -1.3322
46.886307 92.954 -1.5007
47.226067 92.965 -1.6702
47.568283 92.974 -1.8387
47.912983 92.982 -2.0024
48.260181 92.991 -2.1657
48.609894 93.001 -2.3309
48.962143 93.012 -2.5017
49.316940 93.023 -2.6822
49.674313 93.034 -2.8737
50.034271 93.045 -3.0781
50.396843 93.055 -3.2977
50.762039 93.065 -3.5359
51.129883 93.072 -3.7905
51.500389 93.075 -4.0640
51.873581 93.073 -4.3465
52.249481 93.065 -4.6315
52.628101 93.053 -4.9125
53.009464 93.036 -5.1827
53.393593 93.015 -5.4376
53.780506 92.990 -5.6712
54.170223 92.961 -5.8807
54.562763 92.930 -6.0604
54.958145 92.899 -6.2128
55.356396 92.869 -6.3361
55.757530 92.840 -6.4369
56.161572 92.814 -6.5197
56.568542 92.789 -6.5879
56.978462 92.767 -6.6458
57.391350 92.746 -6.6949
57.807232 92.727 -6.7371
58.226128 92.711 -6.7759
58.648056 92.698 -6.8146
59.073048 92.686 -6.8559
59.501114 92.676 -6.9042
59.932281 92.666 -6.9579
60.366577 92.656 -7.0168
60.804020 92.647 -7.0809
61.244629 92.639 -7.1508
61.688435 92.630 -7.2249
62.135452 92.620 -7.3026
62.585712 92.608 -7.3809
63.039234 92.596 -7.4566
63.496040 92.583 -7.5289
63.956161 92.570 -7.5960
64.419617 92.556 -7.6579
64.886421 92.543 -7.7131
65.356621 92.531 -7.7639
65.830215 92.519 -7.8113
66.307251 92.509 -7.8579
66.787743 92.501 -7.9063
67.271713 92.493 -7.9569
67.759193 92.485 -8.0109
68.250206 92.478 -8.0689
68.744774 92.471 -8.1320
69.242928 92.465 -8.1999
69.744690 92.458 -8.2725
70.250084 92.451 -8.3498
70.759148 92.444 -8.4326
71.271896 92.436 -8.5188
71.788361 92.427 -8.6072
72.308571 92.418 -8.6968
72.832550 92.408 -8.7860
73.360321 92.398 -8.8758
73.891922 92.387 -8.9672
74.427376 92.376 -9.0588
74.966705 92.363 -9.1498
75.509949 92.350 -9.2398
76.057121 92.338 -9.3276
76.608261 92.325 -9.4148
77.163399 92.312 -9.5034
77.722557 92.298 -9.5918
78.285767 92.283 -9.6787
78.853058 92.268 -9.7648
79.424461 92.253 -9.8507
80.000000 92.238 -9.9358
80.579712 92.222 -10.0208
81.163628 92.204 -10.1028
81.751770 92.185 -10.1793
82.344177 92.166 -10.2509
82.940880 92.148 -10.3168
83.541901 92.130 -10.3789
84.147285 92.112 -10.4386
84.757050 92.094 -10.4959
85.371231 92.077 -10.5503
85.989868 92.060 -10.6039
86.612984 92.044 -10.6582
87.240616 92.028 -10.7149
87.872803 92.012 -10.7762
88.509560 91.996 -10.8419
89.150940 91.979 -10.9128
89.796967 91.962 -10.9868
90.447670 91.943 -11.0628
91.103088 91.923 -11.1388
91.763260 91.902 -11.2126
92.428215 91.879 -11.2839
93.097992 91.856 -11.3517
93.772614 91.832 -11.4159
94.452133 91.807 -11.4757
95.136566 91.781 -11.5319
95.825966 91.755 -11.5851
96.520363 91.729 -11.6349
97.219788 91.701 -11.6810
97.924286 91.673 -11.7239
98.633881 91.644 -11.7640
99.348625 91.614 -11.8009
100.068542 91.583 -11.8356
100.793686 91.550 -11.8639
101.524078 91.514 -11.8825
102.259766 91.477 -11.8900
103.000778 91.439 -11.8846
103.747162 91.400 -11.8651
104.498962 91.359 -11.8306
105.256203 91.317 -11.7781
106.018929 91.274 -11.7042
106.787186 91.231 -11.6092
107.561012 91.189 -11.4907
108.340446 91.149 -11.3542
109.125526 91.111 -11.2050
109.916290 91.074 -11.0423
110.712791 91.038 -10.8674
111.515060 91.002 -10.6804
112.323143 90.968 -10.4823
113.137085 90.934 -10.2725
113.956924 90.901 -10.0522
114.782700 90.868 -9.8166
115.614464 90.834 -9.5628
116.452255 90.800 -9.2866
117.296112 90.766 -8.9837
118.146095 90.733 -8.6507
119.002228 90.701 -8.2831
119.864563 90.671 -7.8801
120.733154 90.646 -7.4391
121.608040 90.625 -6.9611
122.489258 90.609 -6.4455
123.376869 90.601 -5.8944
124.270905 90.601 -5.3055
125.171425 90.612 -4.6912
126.078468 90.636 -4.0581
126.992081 90.674 -3.4204
127.912323 90.726 -2.7899
128.839233 90.793 -2.1802
129.772842 90.873 -1.6047
130.713242 90.967 -1.0770
131.660431 91.074 -0.6119
132.614502 91.193 -0.2200
133.575485 91.319 0.0840
134.543427 91.453 0.2977
135.518387 91.590 0.4138
136.500412 91.730 0.4321
137.489548 91.870 0.3489
138.485855 92.008 0.1666
139.489380 92.141 -0.1171
140.500168 92.268 -0.4921
141.518295 92.385 -0.9530
142.543793 92.493 -1.4876
143.576721 92.588 -2.0860
144.617142 92.672 -2.7355
145.665100 92.742 -3.4243
146.720642 92.800 -4.1390
147.783844 92.845 -4.8644
148.854752 92.878 -5.5941
149.933411 92.901 -6.3179
151.019897 92.915 -7.0312
152.114243 92.919 -7.7270
153.216522 92.914 -8.4021
154.326797 92.903 -9.0501
155.445114 92.887 -9.6736
156.571533 92.866 -10.2734
157.706116 92.841 -10.8487
158.848923 92.811 -11.3998
160.000000 92.776 -11.9248
161.159424 92.737 -12.4212
162.327255 92.695 -12.8900
163.503540 92.652 -13.3306
164.688354 92.606 -13.7442
165.881760 92.558 -14.1317
167.083801 92.508 -14.4931
168.294571 92.458 -14.8287
169.514099 92.406 -15.1383
170.742462 92.354 -15.4200
171.979736 92.301 -15.6783
173.225967 92.250 -15.9169
174.481232 92.200 -16.1365
175.745605 92.149 -16.3394
177.019119 92.098 -16.5246
178.301880 92.048 -16.6910
179.593933 91.999 -16.8416
180.895340 91.952 -16.9797
182.206177 91.905 -17.1037
183.526520 91.858 -17.2131
184.856430 91.811 -17.3078
186.195984 91.766 -17.3861
187.545227 91.723 -17.4519
188.904266 91.682 -17.5082
190.273132 91.642 -17.5549
191.651932 91.604 -17.5920
193.040726 91.567 -17.6219
194.439575 91.533 -17.6462
195.848572 91.502 -17.6679
197.267761 91.473 -17.6901
198.697250 91.446 -17.7139
200.137085 91.421 -17.7416
201.587372 91.397 -17.7729
203.048157 91.373 -17.8083
204.519531 91.350 -17.8479
206.001556 91.329 -17.8908
207.494324 91.310 -17.9399
208.997925 91.291 -17.9980
210.512405 91.273 -18.0638
212.037857 91.254 -18.1366
213.574371 91.236 -18.2178
215.122025 91.219 -18.3086
216.680893 91.202 -18.4087
218.251053 91.183 -18.5186
219.832581 91.163 -18.6366
221.425583 91.143 -18.7616
223.030121 91.121 -18.8927
224.646286 91.098 -19.0296
226.274170 91.074 -19.1696
227.913849 91.047 -19.3102
229.565399 91.019 -19.4506
231.228928 90.990 -19.5894
232.904510 90.960 -19.7276
234.592224 90.929 -19.8669
236.292191 90.897 -20.0046
238.004456 90.862 -20.1392
239.729126 90.826 -20.2697
241.466309 90.790 -20.3945
243.216080 90.752 -20.5137
244.978516 90.713 -20.6273
246.753738 90.673 -20.7337
248.541809 90.632 -20.8306
250.342850 90.591 -20.9198
252.156937 90.551 -21.0017
253.984161 90.510 -21.0778
255.824646 90.469 -21.1501
257.678467 90.427 -21.2178
259.545685 90.386 -21.2805
261.426483 90.345 -21.3399
263.320862 90.304 -21.3977
265.229004 90.262 -21.4529
267.150970 90.220 -21.5054
269.086853 90.177 -21.5539
271.036774 90.133 -21.5964
273.000824 90.089 -21.6339
274.979095 90.046 -21.6666
276.971710 90.002 -21.6949
278.978760 89.958 -21.7193
281.000336 89.913 -21.7399
283.036591 89.869 -21.7571
285.087585 89.824 -21.7710
287.153442 89.779 -21.7821
289.234283 89.733 -21.7890
291.330200 89.687 -21.7906
293.441284 89.640 -21.7860
295.567688 89.593 -21.7736
297.709503 89.545 -21.7551
299.866821 89.498 -21.7318
302.039795 89.451 -21.7031
304.228485 89.404 -21.6682
306.433044 89.356 -21.6281
308.653595 89.310 -21.5831
310.890228 89.263 -21.5341
313.143066 89.216 -21.4829
315.412231 89.169 -21.4282
317.697845 89.122 -21.3691
320.000000 89.074 -21.3062
322.318848 89.027 -21.2399
324.654510 88.979 -21.1692
327.007080 88.930 -21.0934
329.376709 88.881 -21.0123
331.763519 88.833 -20.9252
334.167603 88.784 -20.8333
336.589142 88.735 -20.7380
339.028198 88.685 -20.6373
341.484924 88.635 -20.5298
343.959473 88.583 -20.4143
346.451935 88.531 -20.2897
348.962463 88.478 -20.1554
351.491211 88.426 -20.0102
354.038239 88.373 -19.8555
356.603760 88.321 -19.6929
359.187866 88.269 -19.5195
361.790680 88.215 -19.3336
364.412354 88.160 -19.1336
367.053040 88.107 -18.9168
369.712860 88.055 -18.6857
372.391968 88.004 -18.4432
375.090454 87.954 -18.1858
377.808533 87.903 -17.9103
380.546265 87.853 -17.6189
383.303864 87.808 -17.3104
386.081451 87.766 -16.9909
388.879150 87.727 -16.6658
391.697144 87.690 -16.3360
394.535522 87.657 -16.0027
397.394501 87.626 -15.6710
400.274170 87.599 -15.3458
403.174744 87.575 -15.0280
406.096313 87.552 -14.7198
409.039062 87.530 -14.4219
412.003113 87.511 -14.1348
414.988647 87.492 -13.8609
417.995850 87.474 -13.6044
421.024811 87.454 -13.3598
424.075714 87.431 -13.1257
427.148743 87.406 -12.8937
430.244049 87.377 -12.6560
433.361786 87.346 -12.4088
436.502106 87.313 -12.1468
439.665161 87.279 -11.8679
442.851166 87.244 -11.5691
446.060242 87.209 -11.2480
449.292572 87.174 -10.8997
452.548340 87.141 -10.5292
455.827698 87.113 -10.1369
459.130798 87.090 -9.7323
462.457855 87.071 -9.3245
465.809021 87.056 -8.9153
469.184448 87.044 -8.5093
472.584381 87.035 -8.1072
476.008911 87.029 -7.7113
479.458252 87.025 -7.3222
482.932617 87.023 -6.9416
486.432159 87.023 -6.5692
489.957031 87.024 -6.2049
493.507477 87.026 -5.8491
497.083618 87.030 -5.5018
500.685699 87.035 -5.1631
504.313873 87.040 -4.8336
507.968323 87.046 -4.5120
511.649292 87.052 -4.1974
515.356934 87.059 -3.8890
519.091370 87.065 -3.5859
522.852966 87.072 -3.2880
526.641724 87.079 -2.9950
530.458008 87.087 -2.7059
534.301941 87.094 -2.4204
538.173706 87.101 -2.1370
542.073547 87.107 -1.8544
546.001648 87.114 -1.5720
549.958191 87.121 -1.2883
553.943420 87.129 -1.0039
557.957520 87.137 -0.7193
562.000671 87.146 -0.4340
566.073181 87.155 -0.1478
570.175171 87.165 0.1390
574.306885 87.176 0.4279
578.468567 87.189 0.7150
582.660400 87.204 0.9975
586.882568 87.221 1.2740
591.135376 87.237 1.5420
595.419006 87.254 1.8031
599.733643 87.271 2.0586
604.079590 87.289 2.3081
608.456970 87.308 2.5514
612.866089 87.326 2.7902
617.307190 87.342 3.0262
621.780457 87.359 3.2602
626.286133 87.377 3.4940
630.824463 87.396 3.7262
635.395691 87.414 3.9554
640.000000 87.433 4.1832
644.637695 87.451 4.4120
649.309021 87.471 4.6392
654.014160 87.493 4.8636
658.753418 87.516 5.0833
663.527039 87.539 5.2959
668.335205 87.562 5.5023
673.178284 87.586 5.7038
678.056396 87.611 5.8974
682.969849 87.637 6.0803
687.918945 87.663 6.2534
692.903870 87.688 6.4154
697.924927 87.712 6.5695
702.982422 87.735 6.7185
708.076477 87.758 6.8615
713.207520 87.780 6.9980
718.375732 87.802 7.1295
723.581360 87.821 7.2569
728.824707 87.840 7.3826
734.106079 87.858 7.5099
739.425720 87.875 7.6365
744.783936 87.892 7.7604
750.180908 87.908 7.8846
755.617065 87.922 8.0107
761.092529 87.934 8.1405
766.607727 87.946 8.2765
772.162903 87.957 8.4175
777.758301 87.968 8.5623
783.394287 87.979 8.7135
789.071045 87.988 8.8734
794.789001 87.997 9.0414
800.548340 88.008 9.2185
806.349487 88.019 9.4023
812.192627 88.030 9.5903
818.078125 88.042 9.7843
824.006226 88.054 9.9860
829.977295 88.067 10.1933
835.991699 88.081 10.4047
842.049622 88.097 10.6202
848.151428 88.113 10.8392
854.297485 88.130 11.0612
860.488098 88.148 11.2863
866.723572 88.168 11.5122
873.004211 88.189 11.7365
879.330322 88.212 11.9592
885.702332 88.235 12.1797
892.120483 88.259 12.3972
898.585144 88.284 12.6105
905.096680 88.310 12.8212
911.655396 88.335 13.0293
918.261597 88.359 13.2382
924.915710 88.383 13.4516
931.618042 88.407 13.6692
938.368896 88.432 13.8919
945.168762 88.459 14.1191
952.017822 88.487 14.3510
958.916504 88.516 14.5861
965.865234 88.546 14.8243
972.864319 88.579 15.0611
979.914062 88.615 15.2923
987.014954 88.653 15.5172
994.167236 88.690 15.7327
1001.371399 88.728 15.9423
1008.627747 88.766 16.1477
1015.936646 88.804 16.3501
1023.298584 88.843 16.5509
1030.713867 88.882 16.7514
