* Measurement data measured by REW V5.20.13
* Source: C:\Users\kurin\Desktop\Targets and Curves\Resolve\Img\Files\RED 5128_L_SPL.txt
* Format: Comma/Tab/Space delimited data
* Dated: Aug 15, 2023 12:28:23 AM
* REW Settings:
*  C-weighting compensation: Off
*  Target level: 75.0 dB
* Note: ; Measurement imported from C:\Users\kurin\Desktop\Targets and Curves\Resolve\Img\Files\RED 5128_L_SPL.txt Format: Comma/Tab/Space delimited data 623 values loaded, 5 Hz to 39,792 Hz log spaced 
* Measurement: RED 5128_L_SPL
* Smoothing: 1/48 octave
* Frequency Step: 1/96 octave
* Start Frequency: 5.000 Hz
*
* Freq(Hz) SPL(dB) Phase(degrees)
5.000000 89.201 -2.6090
5.036232 89.201 -2.6162
5.072727 89.201 -2.6240
5.109486 89.201 -2.6333
5.146511 89.200 -2.6440
5.183805 89.200 -2.6564
5.221369 89.200 -2.6700
5.259205 89.200 -2.6846
5.297316 89.199 -2.7000
5.335702 89.199 -2.7162
5.374367 89.199 -2.7330
5.413311 89.199 -2.7499
5.452538 89.198 -2.7670
5.492050 89.197 -2.7839
5.531847 89.197 -2.8010
5.571934 89.197 -2.8184
5.612310 89.197 -2.8360
5.652979 89.197 -2.8534
5.693943 89.196 -2.8710
5.735204 89.195 -2.8889
5.776763 89.195 -2.9070
5.818624 89.195 -2.9249
5.860788 89.195 -2.9430
5.903258 89.195 -2.9614
5.946035 89.194 -2.9800
5.989123 89.194 -2.9989
6.032523 89.194 -3.0180
6.076237 89.194 -3.0370
6.120268 89.193 -3.0560
6.164618 89.192 -3.0749
6.209289 89.192 -3.0940
6.254284 89.192 -3.1139
6.299605 89.192 -3.1340
6.345255 89.192 -3.1534
6.391235 89.191 -3.1730
6.437549 89.191 -3.1934
6.484198 89.191 -3.2140
6.531185 89.191 -3.2344
6.578513 89.190 -3.2550
6.626183 89.189 -3.2759
6.674199 89.189 -3.2970
6.722563 89.189 -3.3179
6.771278 89.189 -3.3390
6.820345 89.189 -3.3604
6.869768 89.188 -3.3820
6.919549 89.188 -3.4034
6.969691 89.188 -3.4250
7.020196 89.188 -3.4474
7.071068 89.187 -3.4700
7.122308 89.186 -3.4925
7.173919 89.186 -3.5150
7.225904 89.186 -3.5374
7.278266 89.186 -3.5600
7.331007 89.186 -3.5834
7.384131 89.185 -3.6070
7.437639 89.185 -3.6304
7.491535 89.185 -3.6540
7.545822 89.185 -3.6779
7.600502 89.184 -3.7020
7.655579 89.183 -3.7259
7.711054 89.183 -3.7500
7.766932 89.183 -3.7749
7.823214 89.183 -3.8000
7.879904 89.183 -3.8249
7.937005 89.182 -3.8500
7.994520 89.182 -3.8754
8.052452 89.182 -3.9010
8.110803 89.182 -3.9269
8.169578 89.181 -3.9530
8.228777 89.180 -3.9789
8.288406 89.180 -4.0050
8.348468 89.180 -4.0319
8.408964 89.180 -4.0590
8.469899 89.180 -4.0859
8.531276 89.179 -4.1130
8.593097 89.179 -4.1404
8.655366 89.179 -4.1680
8.718086 89.179 -4.1959
8.781260 89.178 -4.2240
8.844893 89.177 -4.2524
8.908987 89.177 -4.2810
8.973545 89.177 -4.3099
9.038571 89.177 -4.3390
9.104069 89.177 -4.3679
9.170040 89.176 -4.3970
9.236490 89.175 -4.4268
9.303422 89.175 -4.4570
9.370838 89.175 -4.4874
9.438744 89.175 -4.5180
9.507140 89.175 -4.5489
9.576033 89.174 -4.5800
9.645425 89.174 -4.6109
9.715320 89.174 -4.6420
9.785721 89.174 -4.6738
9.856632 89.173 -4.7060
9.928058 89.172 -4.7384
10.000000 89.172 -4.7710
10.072464 89.172 -4.8038
10.145453 89.172 -4.8370
10.218971 89.172 -4.8704
10.293022 89.171 -4.9040
10.367610 89.171 -4.9379
10.442738 89.171 -4.9720
10.518411 89.171 -5.0063
10.594631 89.170 -5.0410
10.671404 89.169 -5.0764
10.748734 89.169 -5.1120
10.826623 89.169 -5.1474
10.905077 89.169 -5.1830
10.984100 89.169 -5.2193
11.063695 89.168 -5.2560
11.143867 89.168 -5.2928
11.224621 89.168 -5.3300
11.305959 89.168 -5.3678
11.387886 89.167 -5.4060
11.470407 89.166 -5.4444
11.553527 89.166 -5.4830
11.637249 89.166 -5.5219
11.721577 89.166 -5.5610
11.806517 89.166 -5.6003
11.892071 89.165 -5.6400
11.978246 89.165 -5.6802
12.065045 89.165 -5.7210
12.152473 89.165 -5.7623
12.240536 89.164 -5.8040
12.329235 89.163 -5.8458
12.418578 89.163 -5.8880
12.508568 89.163 -5.9308
12.599211 89.163 -5.9740
12.690510 89.163 -6.0173
12.782471 89.162 -6.0610
12.875097 89.162 -6.1052
12.968395 89.162 -6.1500
13.062370 89.162 -6.1953
13.157025 89.161 -6.2410
13.252366 89.160 -6.2868
13.348398 89.160 -6.3330
13.445127 89.160 -6.3797
13.542556 89.160 -6.4269
13.640691 89.160 -6.4747
13.739536 89.159 -6.5230
13.839099 89.159 -6.5722
13.939383 89.159 -6.6220
14.040393 89.159 -6.6718
14.142136 89.158 -6.7220
14.244616 89.157 -6.7727
14.347837 89.157 -6.8240
14.451808 89.157 -6.8762
14.556532 89.157 -6.9290
14.662014 89.157 -6.9822
14.768262 89.156 -7.0359
14.875278 89.155 -7.0901
14.983070 89.155 -7.1449
15.091644 89.155 -7.2011
15.201005 89.155 -7.2580
15.311157 89.155 -7.3151
15.422109 89.154 -7.3730
15.533863 89.154 -7.4316
15.646428 89.154 -7.4910
15.759809 89.154 -7.5510
15.874010 89.153 -7.6120
15.989040 89.152 -7.6740
16.104904 89.152 -7.7369
16.221605 89.152 -7.8005
16.339155 89.152 -7.8649
16.457554 89.152 -7.9305
16.576813 89.151 -7.9970
16.696936 89.151 -8.0639
16.817928 89.151 -8.1320
16.939798 89.151 -8.2018
17.062551 89.150 -8.2729
17.186193 89.149 -8.3447
17.310732 89.149 -8.4180
17.436172 89.149 -8.4932
17.562521 89.149 -8.5699
17.689787 89.149 -8.6476
17.817974 89.148 -8.7269
17.947090 89.148 -8.8083
18.077143 89.148 -8.8920
18.208138 89.148 -8.9782
18.340080 89.147 -9.0669
18.472980 89.146 -9.1579
18.606844 89.146 -9.2519
18.741676 89.146 -9.3497
18.877487 89.146 -9.4519
19.014280 89.146 -9.5591
19.152065 89.145 -9.6729
19.290850 89.145 -9.7949
19.430639 89.144 -9.9259
19.571442 89.142 -10.0674
19.713264 89.138 -10.2178
19.856115 89.132 -10.3783
20.000000 89.122 -10.5428
20.144928 89.109 -10.7083
20.290907 89.091 -10.8669
20.437943 89.069 -11.0114
20.586044 89.043 -11.1369
20.735220 89.015 -11.2367
20.885475 88.985 -11.3089
21.036821 88.955 -11.3478
21.189262 88.926 -11.3580
21.342808 88.900 -11.3395
21.497467 88.877 -11.3001
21.653246 88.859 -11.2454
21.810154 88.844 -11.1811
21.968201 88.833 -11.1138
22.127390 88.826 -11.0461
22.287735 88.822 -10.9832
22.449242 88.821 -10.9240
22.611917 88.821 -10.8694
22.775772 88.822 -10.8181
22.940815 88.826 -10.7679
23.107054 88.832 -10.7221
23.274498 88.842 -10.6807
23.443153 88.855 -10.6500
23.613033 88.871 -10.6345
23.784142 88.891 -10.6400
23.956491 88.914 -10.6732
24.130091 88.939 -10.7359
24.304947 88.963 -10.8335
24.481071 88.985 -10.9618
24.658470 89.005 -11.1207
24.837156 89.021 -11.3037
25.017136 89.033 -11.5084
25.198421 89.039 -11.7228
25.381020 89.038 -11.9366
25.564941 89.033 -12.1428
25.750195 89.025 -12.3305
25.936790 89.014 -12.5018
26.124741 89.002 -12.6537
26.314051 88.991 -12.7908
26.504732 88.981 -12.9142
26.696796 88.973 -13.0309
26.890253 88.967 -13.1471
27.085112 88.963 -13.2659
27.281382 88.959 -13.3928
27.479073 88.955 -13.5258
27.678198 88.950 -13.6654
27.878765 88.944 -13.8098
28.080786 88.937 -13.9587
28.284271 88.928 -14.1088
28.489231 88.918 -14.2571
28.695675 88.906 -14.4018
28.903616 88.893 -14.5401
29.113064 88.879 -14.6728
29.324028 88.865 -14.7989
29.536524 88.851 -14.9209
29.750557 88.838 -15.0415
29.966141 88.824 -15.1589
30.183289 88.809 -15.2726
30.402010 88.793 -15.3809
30.622314 88.777 -15.4808
30.844217 88.762 -15.5749
31.067726 88.747 -15.6648
31.292856 88.733 -15.7499
31.519617 88.718 -15.8311
31.748020 88.703 -15.9059
31.978081 88.689 -15.9714
32.209808 88.675 -16.0299
32.443211 88.663 -16.0822
32.678310 88.653 -16.1299
32.915108 88.644 -16.1737
33.153625 88.637 -16.2169
33.393871 88.634 -16.2604
33.635857 88.634 -16.3129
33.879597 88.638 -16.3828
34.125103 88.643 -16.4719
34.372387 88.648 -16.5858
34.621464 88.653 -16.7208
34.872345 88.656 -16.8767
35.125042 88.657 -17.0488
35.379574 88.655 -17.2341
35.635948 88.650 -17.4268
35.894180 88.641 -17.6206
36.154285 88.629 -17.8137
36.416275 88.617 -18.0023
36.680161 88.603 -18.1867
36.945961 88.586 -18.3659
37.213688 88.568 -18.5397
37.483353 88.551 -18.7072
37.754974 88.533 -18.8708
38.028561 88.514 -19.0346
38.304131 88.493 -19.1928
38.581699 88.469 -19.3415
38.861279 88.444 -19.4788
39.142883 88.420 -19.5996
39.426529 88.396 -19.7089
39.712231 88.374 -19.8091
40.000000 88.354 -19.9029
40.289856 88.334 -19.9928
40.581814 88.315 -20.0809
40.875885 88.299 -20.1677
41.172089 88.285 -20.2599
41.470440 88.272 -20.3650
41.770950 88.260 -20.4808
42.073643 88.246 -20.6092
42.378525 88.231 -20.7448
42.685616 88.214 -20.8836
42.994934 88.195 -21.0238
43.306492 88.175 -21.1632
43.620308 88.154 -21.2998
43.936401 88.131 -21.4315
44.254780 88.106 -21.5558
44.575470 88.080 -21.6686
44.898483 88.054 -21.7718
45.223835 88.028 -21.8659
45.551544 88.003 -21.9509
45.881630 87.978 -22.0262
46.214108 87.953 -22.0939
46.548996 87.930 -22.1555
46.886307 87.909 -22.2119
47.226067 87.888 -22.2645
47.568283 87.869 -22.3139
47.912983 87.851 -22.3594
48.260181 87.835 -22.4059
48.609894 87.822 -22.4571
48.962143 87.811 -22.5159
49.316940 87.801 -22.5869
49.674313 87.792 -22.6689
50.034271 87.783 -22.7625
50.396843 87.773 -22.8668
50.762039 87.763 -22.9809
51.129883 87.753 -23.1048
51.500389 87.742 -23.2389
51.873581 87.730 -23.3808
52.249481 87.716 -23.5279
52.628101 87.701 -23.6797
53.009464 87.685 -23.8352
53.393593 87.667 -23.9927
53.780506 87.647 -24.1519
54.170223 87.626 -24.3087
54.562763 87.602 -24.4594
54.958145 87.577 -24.6028
55.356396 87.552 -24.7359
55.757530 87.526 -24.8598
56.161572 87.501 -24.9735
56.568542 87.476 -25.0798
56.978462 87.453 -25.1785
57.391350 87.432 -25.2778
57.807232 87.416 -25.3842
58.226128 87.401 -25.5038
58.648056 87.387 -25.6470
59.073048 87.372 -25.8067
59.501114 87.353 -25.9814
59.932281 87.331 -26.1647
60.366577 87.307 -26.3520
60.804020 87.279 -26.5367
61.244629 87.246 -26.7120
61.688435 87.211 -26.8737
62.135452 87.174 -27.0134
62.585712 87.138 -27.1368
63.039234 87.104 -27.2453
63.496040 87.071 -27.3438
63.956161 87.039 -27.4359
64.419617 87.010 -27.5268
64.886421 86.984 -27.6221
65.356621 86.960 -27.7248
65.830215 86.935 -27.8418
66.307251 86.910 -27.9677
66.787743 86.883 -28.1009
67.271713 86.854 -28.2377
67.759193 86.824 -28.3747
68.250206 86.792 -28.5098
68.744774 86.758 -28.6398
69.242928 86.724 -28.7648
69.744690 86.690 -28.8829
70.250084 86.655 -28.9958
70.759148 86.621 -29.1042
71.271896 86.587 -29.2088
71.788361 86.553 -29.3097
72.308571 86.520 -29.4098
72.832550 86.488 -29.5119
73.360321 86.456 -29.6168
73.891922 86.424 -29.7263
74.427376 86.392 -29.8398
74.966705 86.359 -29.9578
75.509949 86.326 -30.0788
76.057121 86.291 -30.2008
76.608261 86.256 -30.3248
77.163399 86.221 -30.4514
77.722557 86.184 -30.5787
78.285767 86.145 -30.7059
78.853058 86.105 -30.8307
79.424461 86.063 -30.9508
80.000000 86.020 -31.0658
80.579712 85.977 -31.1754
81.163628 85.932 -31.2778
81.751770 85.886 -31.3712
82.344177 85.840 -31.4558
82.940880 85.794 -31.5308
83.541901 85.749 -31.5979
84.147285 85.704 -31.6580
84.757050 85.659 -31.7129
85.371231 85.616 -31.7636
85.989868 85.574 -31.8129
86.612984 85.533 -31.8638
87.240616 85.492 -31.9169
87.872803 85.452 -31.9741
88.509560 85.411 -32.0349
89.150940 85.371 -32.0987
89.796967 85.330 -32.1669
90.447670 85.289 -32.2410
91.103088 85.247 -32.3198
91.763260 85.204 -32.4033
92.428215 85.159 -32.4898
93.097992 85.114 -32.5788
93.772614 85.066 -32.6668
94.452133 85.015 -32.7511
95.136566 84.962 -32.8298
95.825966 84.909 -32.9003
96.520363 84.854 -32.9619
97.219788 84.797 -33.0135
97.924286 84.739 -33.0539
98.633881 84.680 -33.0811
99.348625 84.621 -33.0970
100.068542 84.563 -33.1029
100.793686 84.505 -33.0990
101.524078 84.446 -33.0858
102.259766 84.387 -33.0631
103.000778 84.328 -33.0306
103.747162 84.270 -32.9891
104.498962 84.212 -32.9392
105.256203 84.155 -32.8801
106.018929 84.098 -32.8108
106.787186 84.041 -32.7322
107.561012 83.986 -32.6440
108.340446 83.932 -32.5492
109.125526 83.880 -32.4500
109.916290 83.829 -32.3482
110.712791 83.780 -32.2451
111.515060 83.732 -32.1432
112.323143 83.687 -32.0446
113.137085 83.642 -31.9522
113.956924 83.598 -31.8710
114.782700 83.554 -31.7962
115.614464 83.508 -31.7248
116.452255 83.461 -31.6561
117.296112 83.415 -31.5876
118.146095 83.368 -31.5221
119.002228 83.321 -31.4634
119.864563 83.273 -31.4062
120.733154 83.222 -31.3462
121.608040 83.169 -31.2841
122.489258 83.118 -31.2192
123.376869 83.066 -31.1522
124.270905 83.012 -31.0860
125.171425 82.955 -31.0141
126.078468 82.896 -30.9300
126.992081 82.836 -30.8362
127.912323 82.778 -30.7339
128.839233 82.718 -30.6212
129.772842 82.656 -30.4976
130.713242 82.593 -30.3613
131.660431 82.532 -30.2085
132.614502 82.471 -30.0455
133.575485 82.413 -29.8775
134.543427 82.355 -29.7043
135.518387 82.296 -29.5268
136.500412 82.238 -29.3463
137.489548 82.181 -29.1653
138.485855 82.124 -28.9815
139.489380 82.064 -28.7937
140.500168 82.004 -28.6004
141.518295 81.945 -28.3985
142.543793 81.885 -28.1915
143.576721 81.825 -27.9850
144.617142 81.763 -27.7705
145.665100 81.697 -27.5420
146.720642 81.629 -27.2977
147.783844 81.563 -27.0328
148.854752 81.496 -26.7508
149.933411 81.429 -26.4546
151.019897 81.362 -26.1408
152.114243 81.294 -25.8075
153.216522 81.226 -25.4530
154.326797 81.159 -25.0738
155.445114 81.094 -24.6739
156.571533 81.032 -24.2560
157.706116 80.971 -23.8220
158.848923 80.912 -23.3746
160.000000 80.854 -22.9141
161.159424 80.799 -22.4420
162.327255 80.745 -21.9571
163.503540 80.693 -21.4603
164.688354 80.641 -20.9471
165.881760 80.589 -20.4142
167.083801 80.538 -19.8585
168.294571 80.489 -19.2754
169.514099 80.442 -18.6655
170.742462 80.399 -18.0277
171.979736 80.360 -17.3628
173.225967 80.326 -16.6697
174.481232 80.299 -15.9537
175.745605 80.279 -15.2169
177.019119 80.267 -14.4678
178.301880 80.264 -13.7127
179.593933 80.271 -12.9599
180.895340 80.287 -12.2176
182.206177 80.313 -11.4937
183.526520 80.347 -10.7971
184.856430 80.389 -10.1335
186.195984 80.437 -9.5103
187.545227 80.491 -8.9313
188.904266 80.550 -8.4020
190.273132 80.612 -7.9241
191.651932 80.677 -7.5025
193.040726 80.742 -7.1330
194.439575 80.805 -6.8151
195.848572 80.866 -6.5417
197.267761 80.924 -6.3069
198.697250 80.979 -6.1065
200.137085 81.031 -5.9357
201.587372 81.079 -5.7903
203.048157 81.123 -5.6664
204.519531 81.163 -5.5583
206.001556 81.200 -5.4585
207.494324 81.234 -5.3682
208.997925 81.266 -5.2857
210.512405 81.297 -5.2122
212.037857 81.326 -5.1493
213.574371 81.352 -5.0941
215.122025 81.374 -5.0454
216.680893 81.394 -5.0001
218.251053 81.412 -4.9553
219.832581 81.427 -4.9091
221.425583 81.439 -4.8591
223.030121 81.450 -4.8041
224.646286 81.459 -4.7420
226.274170 81.468 -4.6742
227.913849 81.477 -4.6006
229.565399 81.486 -4.5242
231.228928 81.496 -4.4472
232.904510 81.506 -4.3722
234.592224 81.516 -4.3027
236.292191 81.526 -4.2392
238.004456 81.535 -4.1846
239.729126 81.543 -4.1351
241.466309 81.548 -4.0884
243.216080 81.552 -4.0421
244.978516 81.554 -3.9931
246.753738 81.555 -3.9422
248.541809 81.556 -3.8889
250.342850 81.556 -3.8342
252.156937 81.555 -3.7782
253.984161 81.554 -3.7222
255.824646 81.552 -3.6679
257.678467 81.549 -3.6131
259.545685 81.544 -3.5578
261.426483 81.537 -3.4972
263.320862 81.528 -3.4265
265.229004 81.517 -3.3452
267.150970 81.506 -3.2513
269.086853 81.496 -3.1453
271.036774 81.486 -3.0261
273.000824 81.477 -2.8974
274.979095 81.471 -2.7609
276.971710 81.466 -2.6224
278.978760 81.464 -2.4871
281.000336 81.463 -2.3593
283.036591 81.464 -2.2468
285.087585 81.465 -2.1453
287.153442 81.463 -2.0544
289.234283 81.460 -1.9702
291.330200 81.455 -1.8894
293.441284 81.448 -1.8092
295.567688 81.439 -1.7279
297.709503 81.427 -1.6392
299.866821 81.412 -1.5352
302.039795 81.397 -1.4194
304.228485 81.384 -1.2909
306.433044 81.372 -1.1544
308.653595 81.360 -1.0158
310.890228 81.347 -0.8704
313.143066 81.333 -0.7137
315.412231 81.321 -0.5515
317.697845 81.313 -0.3875
320.000000 81.305 -0.2235
322.318848 81.296 -0.0637
324.654510 81.287 0.0955
327.007080 81.278 0.2573
329.376709 81.270 0.4185
331.763519 81.262 0.5759
334.167603 81.253 0.7325
336.589142 81.243 0.8892
339.028198 81.232 1.0485
341.484924 81.220 1.2137
343.959473 81.208 1.3835
346.451935 81.196 1.5571
348.962463 81.183 1.7365
351.491211 81.169 1.9238
354.038239 81.156 2.1174
356.603760 81.144 2.3175
359.187866 81.132 2.5214
361.790680 81.121 2.7253
364.412354 81.109 2.9324
367.053040 81.095 3.1442
369.712860 81.081 3.3623
372.391968 81.067 3.5880
375.090454 81.053 3.8233
377.808533 81.038 4.0710
380.546265 81.023 4.3302
383.303864 81.009 4.6026
386.081451 80.997 4.8832
388.879150 80.987 5.1670
391.697144 80.978 5.4551
394.535522 80.968 5.7466
397.394501 80.959 6.0421
400.274170 80.952 6.3425
403.174744 80.945 6.6470
406.096313 80.937 6.9532
409.039062 80.929 7.2670
412.003113 80.919 7.5933
414.988647 80.909 7.9339
417.995850 80.901 8.2928
421.024811 80.894 8.6688
424.075714 80.888 9.0626
427.148743 80.884 9.4717
430.244049 80.884 9.8951
433.361786 80.888 10.3286
436.502106 80.895 10.7680
439.665161 80.906 11.2116
442.851166 80.920 11.6574
446.060242 80.937 12.1016
449.292572 80.959 12.5391
452.548340 80.984 12.9727
455.827698 81.009 13.4044
459.130798 81.036 13.8316
462.457855 81.069 14.2542
465.809021 81.105 14.6667
469.184448 81.143 15.0618
472.584381 81.183 15.4458
476.008911 81.222 15.8240
479.458252 81.264 16.1919
482.932617 81.311 16.5478
486.432159 81.361 16.8880
489.957031 81.411 17.2058
493.507477 81.461 17.5071
497.083618 81.511 17.7962
500.685699 81.563 18.0701
504.313873 81.617 18.3277
507.968323 81.671 18.5682
511.649292 81.724 18.7903
515.356934 81.778 18.9953
519.091370 81.831 19.1838
522.852966 81.884 19.3575
526.641724 81.934 19.5177
530.458008 81.984 19.6655
534.301941 82.033 19.8022
538.173706 82.081 19.9286
542.073547 82.127 20.0447
546.001648 82.171 20.1546
549.958191 82.213 20.2636
553.943420 82.255 20.3687
557.957520 82.297 20.4675
562.000671 82.337 20.5627
566.073181 82.374 20.6546
570.175171 82.410 20.7477
574.306885 82.444 20.8470
578.468567 82.477 20.9516
582.660400 82.510 21.0619
586.882568 82.543 21.1786
591.135376 82.574 21.3025
595.419006 82.606 21.4335
599.733643 82.639 21.5734
604.079590 82.674 21.7175
608.456970 82.710 21.8628
612.866089 82.748 22.0065
617.307190 82.787 22.1450
621.780457 82.828 22.2786
626.286133 82.868 22.4066
630.824463 82.909 22.5286
635.395691 82.950 22.6435
640.000000 82.991 22.7526
644.637695 83.032 22.8562
649.309021 83.072 22.9567
654.014160 83.111 23.0570
658.753418 83.151 23.1557
663.527039 83.191 23.2524
668.335205 83.232 23.3467
673.178284 83.272 23.4379
678.056396 83.312 23.5267
682.969849 83.352 23.6134
687.918945 83.393 23.6977
692.903870 83.434 23.7788
697.924927 83.474 23.8587
702.982422 83.513 23.9388
708.076477 83.552 24.0197
713.207520 83.592 24.1032
718.375732 83.633 24.1867
723.581360 83.675 24.2685
728.824707 83.718 24.3477
734.106079 83.761 24.4235
739.425720 83.805 24.4948
744.783936 83.850 24.5610
750.180908 83.896 24.6188
755.617065 83.943 24.6645
761.092529 83.991 24.6989
766.607727 84.037 24.7205
772.162903 84.081 24.7330
777.758301 84.123 24.7389
783.394287 84.165 24.7400
789.071045 84.206 24.7376
794.789001 84.245 24.7350
800.548340 84.281 24.7350
806.349487 84.316 24.7400
812.192627 84.350 24.7533
818.078125 84.384 24.7749
824.006226 84.417 24.8066
829.977295 84.452 24.8458
835.991699 84.489 24.8922
842.049622 84.528 24.9408
848.151428 84.568 24.9875
854.297485 84.610 25.0299
860.488098 84.653 25.0659
866.723572 84.698 25.0909
873.004211 84.745 25.0976
879.330322 84.791 25.0910
885.702332 84.833 25.0716
892.120483 84.872 25.0471
898.585144 84.909 25.0260
905.096680 84.946 25.0071
911.655396 84.982 24.9907
918.261597 85.017 24.9800
924.915710 85.049 24.9787
931.618042 85.081 24.9860
