* Measurement data measured by REW V5.20.13
* Source: C:\Users\kurin\Desktop\Targets and Curves\Resolve\Img\Files\SA6 Mk2 Bass On 5128_SPL.txt
* Format: Comma/Tab/Space delimited data
* Dated: Aug 14, 2023 6:55:43 PM
* REW Settings:
*  C-weighting compensation: Off
*  Target level: 75.0 dB
* Note: ; Measurement imported from C:\Users\kurin\Desktop\Targets and Curves\Resolve\Img\Files\SA6 Mk2 Bass On 5128_SPL.txt Format: Comma/Tab/Space delimited data 623 values loaded, 5 Hz to 39,792 Hz log spaced 
* Measurement: SA6 Mk2 Bass On 5128_SPL
* Smoothing: 1/48 octave
* Frequency Step: 1/96 octave
* Start Frequency: 5.000 Hz
*
* Freq(Hz) SPL(dB) Phase(degrees)
5.000000 89.911 -5.8910
5.036232 89.910 -5.8929
5.072727 89.908 -5.8950
5.109486 89.906 -5.8973
5.146511 89.903 -5.9000
5.183805 89.901 -5.9038
5.221369 89.898 -5.9080
5.259205 89.895 -5.9119
5.297316 89.891 -5.9160
5.335702 89.888 -5.9209
5.374367 89.884 -5.9260
5.413311 89.880 -5.9310
5.452538 89.876 -5.9360
5.492050 89.872 -5.9410
5.531847 89.869 -5.9460
5.571934 89.866 -5.9509
5.612310 89.862 -5.9560
5.652979 89.859 -5.9615
5.693943 89.855 -5.9670
5.735204 89.851 -5.9720
5.776763 89.847 -5.9770
5.818624 89.843 -5.9824
5.860788 89.840 -5.9880
5.903258 89.837 -5.9935
5.946035 89.833 -5.9990
5.989123 89.829 -6.0044
6.032523 89.825 -6.0100
6.076237 89.821 -6.0160
6.120268 89.818 -6.0220
6.164618 89.814 -6.0275
6.209289 89.811 -6.0330
6.254284 89.808 -6.0390
6.299605 89.804 -6.0450
6.345255 89.800 -6.0505
6.391235 89.796 -6.0560
6.437549 89.792 -6.0619
6.484198 89.789 -6.0680
6.531185 89.786 -6.0739
6.578513 89.782 -6.0800
6.626183 89.778 -6.0865
6.674199 89.774 -6.0930
6.722563 89.770 -6.0990
6.771278 89.767 -6.1050
6.820345 89.764 -6.1114
6.869768 89.760 -6.1180
6.919549 89.757 -6.1245
6.969691 89.753 -6.1310
7.020196 89.749 -6.1375
7.071068 89.745 -6.1440
7.122308 89.741 -6.1505
7.173919 89.738 -6.1570
7.225904 89.735 -6.1634
7.278266 89.731 -6.1700
7.331007 89.727 -6.1769
7.384131 89.723 -6.1840
7.437639 89.719 -6.1910
7.491535 89.716 -6.1980
7.545822 89.713 -6.2050
7.600502 89.709 -6.2120
7.655579 89.706 -6.2190
7.711054 89.702 -6.2260
7.766932 89.698 -6.2329
7.823214 89.694 -6.2400
7.879904 89.690 -6.2474
7.937005 89.687 -6.2550
7.994520 89.684 -6.2625
8.052452 89.680 -6.2700
8.110803 89.676 -6.2775
8.169578 89.672 -6.2850
8.228777 89.668 -6.2924
8.288406 89.665 -6.3000
8.348468 89.661 -6.3080
8.408964 89.658 -6.3160
8.469899 89.655 -6.3235
8.531276 89.651 -6.3310
8.593097 89.647 -6.3389
8.655366 89.643 -6.3470
8.718086 89.639 -6.3549
8.781260 89.636 -6.3630
8.844893 89.633 -6.3715
8.908987 89.629 -6.3800
8.973545 89.625 -6.3880
9.038571 89.621 -6.3960
9.104069 89.617 -6.4044
9.170040 89.614 -6.4130
9.236490 89.611 -6.4215
9.303422 89.607 -6.4300
9.370838 89.604 -6.4384
9.438744 89.600 -6.4470
9.507140 89.596 -6.4559
9.576033 89.592 -6.4650
9.645425 89.588 -6.4740
9.715320 89.585 -6.4830
9.785721 89.582 -6.4920
9.856632 89.578 -6.5010
9.928058 89.575 -6.5099
10.000000 89.571 -6.5190
10.072464 89.567 -6.5285
10.145453 89.563 -6.5380
10.218971 89.559 -6.5470
10.293022 89.556 -6.5560
10.367610 89.553 -6.5654
10.442738 89.549 -6.5750
10.518411 89.545 -6.5850
10.594631 89.541 -6.5950
10.671404 89.537 -6.6045
10.748734 89.534 -6.6140
10.826623 89.531 -6.6239
10.905077 89.527 -6.6340
10.984100 89.524 -6.6440
11.063695 89.520 -6.6540
11.143867 89.516 -6.6639
11.224621 89.512 -6.6740
11.305959 89.508 -6.6844
11.387886 89.505 -6.6950
11.470407 89.502 -6.7055
11.553527 89.498 -6.7160
11.637249 89.494 -6.7265
11.721577 89.490 -6.7370
11.806517 89.486 -6.7474
11.892071 89.483 -6.7580
11.978246 89.479 -6.7689
12.065045 89.476 -6.7800
12.152473 89.473 -6.7910
12.240536 89.469 -6.8020
12.329235 89.465 -6.8129
12.418578 89.461 -6.8240
12.508568 89.457 -6.8355
12.599211 89.454 -6.8470
12.690510 89.451 -6.8579
12.782471 89.447 -6.8690
12.875097 89.443 -6.8809
12.968395 89.439 -6.8930
13.062370 89.435 -6.9046
13.157025 89.432 -6.9160
13.252366 89.429 -6.9274
13.348398 89.425 -6.9390
13.445127 89.422 -6.9509
13.542556 89.418 -6.9630
13.640691 89.414 -6.9749
13.739536 89.410 -6.9870
13.839099 89.406 -6.9994
13.939383 89.403 -7.0120
14.040393 89.400 -7.0246
14.142136 89.396 -7.0370
14.244616 89.392 -7.0489
14.347837 89.388 -7.0610
14.451808 89.384 -7.0739
14.556532 89.381 -7.0870
14.662014 89.378 -7.0995
14.768262 89.374 -7.1120
14.875278 89.371 -7.1249
14.983070 89.367 -7.1380
15.091644 89.363 -7.1510
15.201005 89.359 -7.1640
15.311157 89.355 -7.1770
15.422109 89.352 -7.1900
15.533863 89.349 -7.2029
15.646428 89.345 -7.2160
15.759809 89.341 -7.2294
15.874010 89.337 -7.2430
15.989040 89.333 -7.2565
16.104904 89.330 -7.2700
16.221605 89.326 -7.2835
16.339155 89.323 -7.2970
16.457554 89.320 -7.3105
16.576813 89.316 -7.3240
16.696936 89.312 -7.3375
16.817928 89.308 -7.3510
16.939798 89.304 -7.3645
17.062551 89.301 -7.3780
17.186193 89.298 -7.3915
17.310732 89.294 -7.4050
17.436172 89.290 -7.4185
17.562521 89.286 -7.4320
17.689787 89.282 -7.4455
17.817974 89.279 -7.4590
17.947090 89.276 -7.4726
18.077143 89.272 -7.4860
18.208138 89.269 -7.4991
18.340080 89.265 -7.5120
18.472980 89.261 -7.5246
18.606844 89.257 -7.5370
18.741676 89.253 -7.5496
18.877487 89.250 -7.5620
19.014280 89.247 -7.5737
19.152065 89.243 -7.5850
19.290850 89.239 -7.5957
19.430639 89.235 -7.6060
19.571442 89.231 -7.6159
19.713264 89.228 -7.6250
19.856115 89.225 -7.6325
20.000000 89.222 -7.6390
20.144928 89.219 -7.6447
20.290907 89.216 -7.6500
20.437943 89.214 -7.6549
20.586044 89.212 -7.6600
20.735220 89.210 -7.6660
20.885475 89.209 -7.6730
21.036821 89.208 -7.6811
21.189262 89.207 -7.6910
21.342808 89.207 -7.7034
21.497467 89.207 -7.7180
21.653246 89.207 -7.7348
21.810154 89.206 -7.7540
21.968201 89.206 -7.7758
22.127390 89.206 -7.8000
22.287735 89.206 -7.8262
22.449242 89.206 -7.8550
22.611917 89.206 -7.8866
22.775772 89.206 -7.9220
22.940815 89.206 -7.9622
23.107054 89.206 -8.0069
23.274498 89.205 -8.0563
23.443153 89.203 -8.1099
23.613033 89.200 -8.1688
23.784142 89.196 -8.2289
23.956491 89.189 -8.2886
24.130091 89.179 -8.3419
24.304947 89.167 -8.3822
24.481071 89.155 -8.4100
24.658470 89.143 -8.4236
24.837156 89.131 -8.4230
25.017136 89.119 -8.4072
25.198421 89.107 -8.3770
25.381020 89.098 -8.3315
25.564941 89.091 -8.2761
25.750195 89.087 -8.2146
25.936790 89.087 -8.1511
26.124741 89.090 -8.0897
26.314051 89.096 -8.0331
26.504732 89.104 -7.9839
26.696796 89.115 -7.9460
26.890253 89.128 -7.9228
27.085112 89.144 -7.9180
27.281382 89.161 -7.9374
27.479073 89.179 -7.9789
27.678198 89.194 -8.0444
27.878765 89.208 -8.1279
28.080786 89.219 -8.2256
28.284271 89.227 -8.3328
28.489231 89.231 -8.4453
28.695675 89.233 -8.5578
28.903616 89.231 -8.6642
29.113064 89.228 -8.7629
29.324028 89.224 -8.8493
29.536524 89.219 -8.9259
29.750557 89.215 -8.9925
29.966141 89.211 -9.0529
30.183289 89.209 -9.1105
30.402010 89.208 -9.1669
30.622314 89.207 -9.2251
30.844217 89.206 -9.2849
31.067726 89.206 -9.3472
31.292856 89.206 -9.4119
31.519617 89.206 -9.4795
31.748020 89.206 -9.5499
31.978081 89.206 -9.6233
32.209808 89.206 -9.6999
32.443211 89.206 -9.7803
32.678310 89.205 -9.8639
32.915108 89.204 -9.9505
33.153625 89.202 -10.0389
33.393871 89.199 -10.1286
33.635857 89.194 -10.2169
33.879597 89.188 -10.3011
34.125103 89.182 -10.3809
34.372387 89.176 -10.4548
34.621464 89.170 -10.5239
34.872345 89.164 -10.5885
35.125042 89.158 -10.6489
35.379574 89.153 -10.7043
35.635948 89.149 -10.7579
35.894180 89.147 -10.8124
36.154285 89.145 -10.8689
36.416275 89.144 -10.9298
36.680161 89.143 -10.9949
36.945961 89.143 -11.0645
37.213688 89.143 -11.1389
37.483353 89.143 -11.2184
37.754974 89.143 -11.3029
38.028561 89.143 -11.3922
38.304131 89.143 -11.4869
38.581699 89.142 -11.5872
38.861279 89.141 -11.6928
39.142883 89.140 -11.8041
39.426529 89.138 -11.9198
39.712231 89.134 -12.0396
40.000000 89.129 -12.1608
40.289856 89.123 -12.2808
40.581814 89.116 -12.3998
40.875885 89.109 -12.5180
41.172089 89.100 -12.6338
41.470440 89.090 -12.7461
41.770950 89.079 -12.8538
42.073643 89.069 -12.9541
42.378525 89.059 -13.0509
42.685616 89.050 -13.1467
42.994934 89.042 -13.2429
43.306492 89.033 -13.3424
43.620308 89.023 -13.4428
43.936401 89.013 -13.5437
44.254780 89.002 -13.6428
44.575470 88.990 -13.7386
44.898483 88.978 -13.8299
45.223835 88.966 -13.9147
45.551544 88.954 -13.9939
45.881630 88.943 -14.0666
46.214108 88.932 -14.1359
46.548996 88.923 -14.2033
46.886307 88.916 -14.2729
47.226067 88.911 -14.3490
47.568283 88.906 -14.4329
47.912983 88.902 -14.5272
48.260181 88.898 -14.6318
48.609894 88.893 -14.7485
48.962143 88.887 -14.8738
49.316940 88.879 -15.0061
49.674313 88.869 -15.1418
50.034271 88.858 -15.2769
50.396843 88.845 -15.4108
50.762039 88.830 -15.5430
51.129883 88.814 -15.6698
51.500389 88.796 -15.7859
51.873581 88.777 -15.8948
52.249481 88.760 -15.9991
52.628101 88.743 -16.0968
53.009464 88.723 -16.1881
53.393593 88.703 -16.2699
53.780506 88.684 -16.3366
54.170223 88.666 -16.3959
54.562763 88.653 -16.4523
54.958145 88.641 -16.5099
55.356396 88.630 -16.5752
55.757530 88.619 -16.6449
56.161572 88.608 -16.7177
56.568542 88.597 -16.7939
56.978462 88.587 -16.8718
57.391350 88.578 -16.9558
57.807232 88.571 -17.0505
58.226128 88.563 -17.1538
58.648056 88.554 -17.2667
59.073048 88.544 -17.3848
59.501114 88.532 -17.5028
59.932281 88.519 -17.6238
60.366577 88.508 -17.7488
60.804020 88.496 -17.8788
61.244629 88.483 -18.0166
61.688435 88.468 -18.1568
62.135452 88.451 -18.2943
62.585712 88.433 -18.4308
63.039234 88.415 -18.5655
63.496040 88.397 -18.6998
63.956161 88.378 -18.8349
64.419617 88.358 -18.9698
64.886421 88.337 -19.1030
65.356621 88.316 -19.2368
65.830215 88.295 -19.3747
66.307251 88.272 -19.5117
66.787743 88.246 -19.6445
67.271713 88.218 -19.7718
67.759193 88.191 -19.8899
68.250206 88.164 -20.0028
68.744774 88.137 -20.1140
69.242928 88.109 -20.2208
69.744690 88.079 -20.3216
70.250084 88.048 -20.4158
70.759148 88.018 -20.5017
71.271896 87.988 -20.5809
71.788361 87.958 -20.6556
72.308571 87.927 -20.7229
72.832550 87.895 -20.7796
73.360321 87.864 -20.8289
73.891922 87.835 -20.8727
74.427376 87.807 -20.9119
74.966705 87.778 -20.9491
75.509949 87.749 -20.9809
76.057121 87.721 -21.0028
76.608261 87.694 -21.0210
77.163399 87.671 -21.0401
77.722557 87.648 -21.0600
78.285767 87.624 -21.0833
78.853058 87.601 -21.1060
79.424461 87.578 -21.1230
80.000000 87.556 -21.1390
80.579712 87.537 -21.1556
81.163628 87.519 -21.1760
81.751770 87.502 -21.2037
82.344177 87.486 -21.2389
82.940880 87.471 -21.2816
83.541901 87.458 -21.3359
84.147285 87.447 -21.4063
84.757050 87.435 -21.4918
85.371231 87.421 -21.5935
85.989868 87.406 -21.7088
86.612984 87.390 -21.8352
87.240616 87.372 -21.9737
87.872803 87.353 -22.1271
88.509560 87.330 -22.2877
89.150940 87.302 -22.4503
89.796967 87.270 -22.6107
90.447670 87.237 -22.7621
91.103088 87.202 -22.9067
91.763260 87.165 -23.0451
92.428215 87.126 -23.1747
93.097992 87.085 -23.2926
93.772614 87.042 -23.4008
94.452133 87.001 -23.5004
95.136566 86.959 -23.5918
95.825966 86.915 -23.6758
96.520363 86.870 -23.7518
97.219788 86.826 -23.8184
97.924286 86.782 -23.8799
98.633881 86.739 -23.9406
99.348625 86.695 -23.9989
100.068542 86.649 -24.0550
100.793686 86.601 -24.1069
101.524078 86.554 -24.1520
102.259766 86.506 -24.1919
103.000778 86.456 -24.2281
103.747162 86.405 -24.2579
104.498962 86.353 -24.2793
105.256203 86.299 -24.2930
106.018929 86.246 -24.2996
106.787186 86.191 -24.2980
107.561012 86.134 -24.2874
108.340446 86.076 -24.2670
109.125526 86.018 -24.2358
109.916290 85.958 -24.1941
110.712791 85.897 -24.1442
111.515060 85.834 -24.0802
112.323143 85.768 -23.9965
113.137085 85.701 -23.8932
113.956924 85.634 -23.7680
114.782700 85.567 -23.6224
115.614464 85.499 -23.4583
116.452255 85.430 -23.2724
117.296112 85.361 -23.0611
118.146095 85.292 -22.8275
119.002228 85.225 -22.5743
119.864563 85.158 -22.2988
120.733154 85.089 -22.0010
121.608040 85.019 -21.6747
122.489258 84.949 -21.3141
123.376869 84.880 -20.9180
124.270905 84.812 -20.4844
125.171425 84.746 -20.0099
126.078468 84.680 -19.4905
126.992081 84.618 -18.9263
127.912323 84.562 -18.3145
128.839233 84.512 -17.6594
129.772842 84.468 -16.9641
130.713242 84.432 -16.2295
131.660431 84.403 -15.4559
132.614502 84.385 -14.6483
133.575485 84.379 -13.8088
134.543427 84.386 -12.9477
135.518387 84.407 -12.0721
136.500412 84.443 -11.1947
137.489548 84.496 -10.3245
138.485855 84.566 -9.4791
139.489380 84.653 -8.6725
140.500168 84.758 -7.9236
141.518295 84.879 -7.2518
142.543793 85.014 -6.6693
143.576721 85.159 -6.1920
144.617142 85.313 -5.8287
145.665100 85.474 -5.5937
146.720642 85.637 -5.4861
147.783844 85.796 -5.5143
148.854752 85.951 -5.6654
149.933411 86.097 -5.9330
151.019897 86.235 -6.3059
152.114243 86.360 -6.7765
153.216522 86.473 -7.3283
154.326797 86.569 -7.9483
155.445114 86.650 -8.6184
156.571533 86.716 -9.3205
157.706116 86.767 -10.0413
158.848923 86.802 -10.7649
160.000000 86.824 -11.4813
161.159424 86.835 -12.1757
162.327255 86.836 -12.8465
163.503540 86.828 -13.4875
164.688354 86.813 -14.0977
165.881760 86.792 -14.6734
167.083801 86.765 -15.2166
168.294571 86.735 -15.7272
169.514099 86.701 -16.2089
170.742462 86.666 -16.6649
171.979736 86.628 -17.0969
173.225967 86.587 -17.5082
174.481232 86.543 -17.8971
175.745605 86.498 -18.2632
177.019119 86.450 -18.6062
178.301880 86.400 -18.9247
179.593933 86.349 -19.2213
180.895340 86.298 -19.4980
182.206177 86.246 -19.7544
183.526520 86.192 -19.9904
184.856430 86.138 -20.2065
186.195984 86.085 -20.4023
187.545227 86.032 -20.5816
188.904266 85.979 -20.7482
190.273132 85.927 -20.9026
191.651932 85.875 -21.0460
193.040726 85.824 -21.1796
194.439575 85.773 -21.3054
195.848572 85.722 -21.4237
197.267761 85.671 -21.5356
198.697250 85.620 -21.6408
200.137085 85.568 -21.7393
201.587372 85.516 -21.8308
203.048157 85.463 -21.9148
204.519531 85.409 -21.9908
206.001556 85.355 -22.0582
207.494324 85.300 -22.1159
208.997925 85.244 -22.1625
210.512405 85.188 -22.1979
212.037857 85.131 -22.2215
213.574371 85.074 -22.2330
215.122025 85.016 -22.2338
216.680893 84.958 -22.2191
218.251053 84.898 -22.1838
219.832581 84.839 -22.1302
221.425583 84.782 -22.0577
223.030121 84.727 -21.9692
224.646286 84.672 -21.8673
226.274170 84.619 -21.7523
227.913849 84.569 -21.6232
229.565399 84.522 -21.4863
231.228928 84.478 -21.3473
232.904510 84.437 -21.2074
234.592224 84.397 -21.0695
236.292191 84.359 -20.9344
238.004456 84.323 -20.8042
239.729126 84.289 -20.6783
241.466309 84.255 -20.5572
243.216080 84.221 -20.4403
244.978516 84.189 -20.3268
246.753738 84.157 -20.2183
248.541809 84.126 -20.1167
250.342850 84.095 -20.0203
252.156937 84.063 -19.9274
253.984161 84.031 -19.8402
255.824646 84.002 -19.7599
257.678467 83.972 -19.6872
259.545685 83.940 -19.6253
261.426483 83.905 -19.5671
263.320862 83.869 -19.5063
265.229004 83.831 -19.4442
267.150970 83.794 -19.3807
269.086853 83.755 -19.3142
271.036774 83.714 -19.2445
273.000824 83.671 -19.1672
274.979095 83.627 -19.0767
276.971710 83.582 -18.9763
278.978760 83.539 -18.8665
281.000336 83.497 -18.7513
283.036591 83.455 -18.6366
285.087585 83.412 -18.5174
287.153442 83.367 -18.3900
289.234283 83.321 -18.2554
291.330200 83.278 -18.1119
293.441284 83.235 -17.9634
295.567688 83.192 -17.8150
297.709503 83.148 -17.6614
299.866821 83.102 -17.4993
302.039795 83.056 -17.3285
304.228485 83.011 -17.1467
306.433044 82.967 -16.9566
308.653595 82.923 -16.7607
310.890228 82.879 -16.5576
313.143066 82.835 -16.3459
315.412231 82.792 -16.1276
317.697845 82.750 -15.9045
320.000000 82.709 -15.6757
322.318848 82.667 -15.4410
324.654510 82.626 -15.2008
327.007080 82.587 -14.9540
329.376709 82.548 -14.7048
331.763519 82.511 -14.4585
334.167603 82.474 -14.2108
336.589142 82.435 -13.9596
339.028198 82.395 -13.7038
341.484924 82.357 -13.4399
343.959473 82.320 -13.1717
346.451935 82.283 -12.9024
348.962463 82.246 -12.6298
351.491211 82.209 -12.3532
354.038239 82.171 -12.0718
356.603760 82.134 -11.7843
359.187866 82.096 -11.4909
361.790680 82.059 -11.1917
364.412354 82.021 -10.8859
367.053040 81.984 -10.5728
369.712860 81.946 -10.2520
372.391968 81.909 -9.9224
375.090454 81.872 -9.5850
377.808533 81.836 -9.2406
380.546265 81.800 -8.8881
383.303864 81.764 -8.5268
386.081451 81.727 -8.1561
388.879150 81.691 -7.7754
391.697144 81.656 -7.3842
394.535522 81.621 -6.9823
397.394501 81.586 -6.5682
400.274170 81.552 -6.1405
403.174744 81.518 -5.6984
406.096313 81.485 -5.2400
409.039062 81.453 -4.7675
412.003113 81.424 -4.2829
414.988647 81.397 -3.7856
417.995850 81.370 -3.2766
421.024811 81.344 -2.7527
424.075714 81.320 -2.2104
427.148743 81.299 -1.6518
430.244049 81.281 -1.0781
433.361786 81.266 -0.4889
436.502106 81.253 0.1169
439.665161 81.245 0.7361
442.851166 81.243 1.3688
446.060242 81.247 2.0060
449.292572 81.257 2.6399
452.548340 81.273 3.2671
455.827698 81.293 3.8827
459.130798 81.318 4.4831
462.457855 81.349 5.0637
465.809021 81.383 5.6223
469.184448 81.419 6.1540
472.584381 81.456 6.6625
476.008911 81.494 7.1486
479.458252 81.532 7.6155
482.932617 81.570 8.0667
486.432159 81.609 8.5026
489.957031 81.647 8.9238
493.507477 81.685 9.3347
497.083618 81.720 9.7390
500.685699 81.755 10.1407
504.313873 81.790 10.5461
507.968323 81.826 10.9527
511.649292 81.862 11.3594
515.356934 81.900 11.7676
519.091370 81.938 12.1788
522.852966 81.979 12.5916
526.641724 82.021 13.0068
530.458008 82.067 13.4196
534.301941 82.116 13.8266
538.173706 82.169 14.2247
542.073547 82.224 14.6104
546.001648 82.282 14.9818
549.958191 82.342 15.3362
553.943420 82.404 15.6719
557.957520 82.468 15.9869
562.000671 82.533 16.2800
566.073181 82.599 16.5493
570.175171 82.666 16.7962
574.306885 82.731 17.0211
578.468567 82.796 17.2263
582.660400 82.860 17.4141
586.882568 82.923 17.5854
591.135376 82.984 17.7412
595.419006 83.045 17.8835
599.733643 83.104 18.0136
604.079590 83.161 18.1346
608.456970 83.215 18.2505
612.866089 83.269 18.3606
617.307190 83.323 18.4658
621.780457 83.377 18.5647
626.286133 83.429 18.6551
630.824463 83.480 18.7407
635.395691 83.529 18.8250
640.000000 83.578 18.9067
644.637695 83.628 18.9866
649.309021 83.678 19.0618
654.014160 83.727 19.1288
658.753418 83.776 19.1898
663.527039 83.824 19.2461
668.335205 83.871 19.2968
673.178284 83.919 19.3419
678.056396 83.966 19.3809
682.969849 84.012 19.4130
687.918945 84.057 19.4389
692.903870 84.101 19.4583
697.924927 84.145 19.4730
702.982422 84.187 19.4845
708.076477 84.228 19.4930
713.207520 84.269 19.5000
718.375732 84.309 19.5030
723.581360 84.348 19.4990
728.824707 84.387 19.4900
734.106079 84.424 19.4761
739.425720 84.459 19.4601
744.783936 84.491 19.4446
750.180908 84.522 19.4310
755.617065 84.552 19.4212
761.092529 84.580 19.4170
766.607727 84.606 19.4198
772.162903 84.631 19.4329
777.758301 84.654 19.4618
783.394287 84.678 19.5018
789.071045 84.704 19.5514
794.789001 84.732 19.6068
800.548340 84.759 19.6627
806.349487 84.787 19.7228
812.192627 84.814 19.7898
818.078125 84.843 19.8607
824.006226 84.874 19.9337
829.977295 84.905 20.0087
835.991699 84.935 20.0849
842.049622 84.966 20.1637
848.151428 84.999 20.2476
854.297485 85.033 20.3327
860.488098 85.069 20.4159
866.723572 85.106 20.4967
873.004211 85.144 20.5742
879.330322 85.183 20.6468
885.702332 85.223 20.7118
892.120483 85.264 20.7708
898.585144 85.304 20.8236
905.096680 85.344 20.8718
911.655396 85.384 20.9163
918.261597 85.424 20.9588
