* Measurement data measured by REW V5.20.13
* Source: C:\Users\kurin\Desktop\Targets and Curves\Resolve\Img\Lecram\Dan_Clark_Audio_Expanse_5128_SPL.txt
* Format: Comma/Tab/Space delimited data
* Dated: Aug 15, 2023 3:25:32 PM
* REW Settings:
*  C-weighting compensation: Off
*  Target level: 75.0 dB
* Note: ; Measurement imported from C:\Users\kurin\Desktop\Targets and Curves\Resolve\Img\Lecram\Dan_Clark_Audio_Expanse_5128_SPL.txt Format: Comma/Tab/Space delimited data 623 values loaded, 5 Hz to 39,792 Hz log spaced 
* Measurement: Dan_Clark_Audio_Expanse_51
* Smoothing: 1/48 octave
* Frequency Step: 1/96 octave
* Start Frequency: 5.000 Hz
*
* Freq(Hz) SPL(dB) Phase(degrees)
5.000000 99.088 -23.0730
5.036232 99.081 -23.0701
5.072727 99.073 -23.0670
5.109486 99.064 -23.0637
5.146511 99.053 -23.0600
5.183805 99.040 -23.0556
5.221369 99.026 -23.0510
5.259205 99.011 -23.0470
5.297316 98.996 -23.0430
5.335702 98.980 -23.0386
5.374367 98.964 -23.0340
5.413311 98.948 -23.0294
5.452538 98.931 -23.0250
5.492050 98.915 -23.0209
5.531847 98.898 -23.0170
5.571934 98.882 -23.0131
5.612310 98.865 -23.0090
5.652979 98.848 -23.0045
5.693943 98.832 -23.0000
5.735204 98.815 -22.9960
5.776763 98.799 -22.9920
5.818624 98.783 -22.9876
5.860788 98.767 -22.9830
5.903258 98.751 -22.9785
5.946035 98.734 -22.9740
5.989123 98.717 -22.9695
6.032523 98.701 -22.9650
6.076237 98.685 -22.9605
6.120268 98.668 -22.9560
6.164618 98.651 -22.9515
6.209289 98.635 -22.9470
6.254284 98.619 -22.9425
6.299605 98.603 -22.9380
6.345255 98.587 -22.9336
6.391235 98.570 -22.9290
6.437549 98.554 -22.9240
6.484198 98.537 -22.9190
6.531185 98.521 -22.9145
6.578513 98.504 -22.9100
6.626183 98.487 -22.9051
6.674199 98.471 -22.9000
6.722563 98.455 -22.8950
6.771278 98.439 -22.8900
6.820345 98.423 -22.8850
6.869768 98.406 -22.8800
6.919549 98.390 -22.8750
6.969691 98.373 -22.8700
7.020196 98.357 -22.8650
7.071068 98.340 -22.8600
7.122308 98.324 -22.8551
7.173919 98.307 -22.8500
7.225904 98.290 -22.8445
7.278266 98.274 -22.8390
7.331007 98.258 -22.8340
7.384131 98.242 -22.8290
7.437639 98.226 -22.8236
7.491535 98.209 -22.8180
7.545822 98.193 -22.8125
7.600502 98.176 -22.8070
7.655579 98.160 -22.8016
7.711054 98.143 -22.7960
7.766932 98.126 -22.7900
7.823214 98.110 -22.7840
7.879904 98.094 -22.7785
7.937005 98.078 -22.7730
7.994520 98.062 -22.7671
8.052452 98.045 -22.7610
8.110803 98.029 -22.7550
8.169578 98.012 -22.7490
8.228777 97.996 -22.7430
8.288406 97.979 -22.7370
8.348468 97.963 -22.7310
8.408964 97.946 -22.7250
8.469899 97.929 -22.7191
8.531276 97.913 -22.7130
8.593097 97.897 -22.7066
8.655366 97.881 -22.7000
8.718086 97.865 -22.6934
8.781260 97.848 -22.6870
8.844893 97.832 -22.6811
8.908987 97.815 -22.6750
8.973545 97.799 -22.6681
9.038571 97.782 -22.6610
9.104069 97.765 -22.6545
9.170040 97.749 -22.6480
9.236490 97.733 -22.6411
9.303422 97.717 -22.6340
9.370838 97.701 -22.6270
9.438744 97.684 -22.6200
9.507140 97.668 -22.6130
9.576033 97.651 -22.6060
9.645425 97.635 -22.5990
9.715320 97.618 -22.5920
9.785721 97.601 -22.5851
9.856632 97.585 -22.5780
9.928058 97.569 -22.5706
10.000000 97.553 -22.5630
10.072464 97.537 -22.5556
10.145453 97.520 -22.5480
10.218971 97.504 -22.5400
10.293022 97.487 -22.5320
10.367610 97.471 -22.5245
10.442738 97.454 -22.5170
10.518411 97.438 -22.5091
10.594631 97.421 -22.5010
10.671404 97.404 -22.4931
10.748734 97.388 -22.4850
10.826623 97.372 -22.4765
10.905077 97.356 -22.4680
10.984100 97.340 -22.4600
11.063695 97.323 -22.4520
11.143867 97.307 -22.4436
11.224621 97.290 -22.4350
11.305959 97.274 -22.4260
11.387886 97.257 -22.4170
11.470407 97.240 -22.4085
11.553527 97.224 -22.4000
11.637249 97.208 -22.3911
11.721577 97.192 -22.3820
11.806517 97.176 -22.3725
11.892071 97.159 -22.3630
11.978246 97.143 -22.3540
12.065045 97.126 -22.3450
12.152473 97.110 -22.3356
12.240536 97.093 -22.3260
12.329235 97.077 -22.3161
12.418578 97.060 -22.3060
12.508568 97.043 -22.2960
12.599211 97.027 -22.2860
12.690510 97.011 -22.2761
12.782471 96.995 -22.2660
12.875097 96.979 -22.2556
12.968395 96.962 -22.2450
13.062370 96.946 -22.2345
13.157025 96.929 -22.2240
13.252366 96.913 -22.2136
13.348398 96.896 -22.2030
13.445127 96.879 -22.1921
13.542556 96.863 -22.1810
13.640691 96.847 -22.1696
13.739536 96.831 -22.1580
13.839099 96.815 -22.1466
13.939383 96.798 -22.1350
14.040393 96.782 -22.1231
14.142136 96.765 -22.1110
14.244616 96.749 -22.0991
14.347837 96.732 -22.0870
14.451808 96.715 -22.0746
14.556532 96.699 -22.0620
14.662014 96.683 -22.0496
14.768262 96.667 -22.0370
14.875278 96.651 -22.0241
14.983070 96.634 -22.0110
15.091644 96.618 -21.9976
15.201005 96.601 -21.9840
15.311157 96.585 -21.9706
15.422109 96.568 -21.9570
15.533863 96.552 -21.9431
15.646428 96.535 -21.9290
15.759809 96.518 -21.9146
15.874010 96.502 -21.9000
15.989040 96.486 -21.8851
16.104904 96.470 -21.8700
16.221605 96.454 -21.8546
16.339155 96.437 -21.8390
16.457554 96.421 -21.8237
16.576813 96.404 -21.8080
16.696936 96.388 -21.7912
16.817928 96.371 -21.7740
16.939798 96.354 -21.7571
17.062551 96.338 -21.7400
17.186193 96.322 -21.7223
17.310732 96.306 -21.7040
17.436172 96.290 -21.6852
17.562521 96.273 -21.6660
17.689787 96.257 -21.6468
17.817974 96.240 -21.6270
17.947090 96.224 -21.6063
18.077143 96.207 -21.5850
18.208138 96.190 -21.5634
18.340080 96.174 -21.5410
18.472980 96.158 -21.5175
18.606844 96.142 -21.4930
18.741676 96.126 -21.4680
18.877487 96.109 -21.4420
19.014280 96.093 -21.4147
19.152065 96.076 -21.3860
19.290850 96.060 -21.3560
19.430639 96.043 -21.3240
19.571442 96.026 -21.2895
19.713264 96.010 -21.2520
19.856115 95.994 -21.2110
20.000000 95.978 -21.1660
20.144928 95.963 -21.1164
20.290907 95.948 -21.0631
20.437943 95.934 -21.0059
20.586044 95.922 -20.9470
20.735220 95.911 -20.8877
20.885475 95.902 -20.8301
21.036821 95.895 -20.7761
21.189262 95.889 -20.7281
21.342808 95.885 -20.6880
21.497467 95.882 -20.6580
21.653246 95.881 -20.6406
21.810154 95.880 -20.6370
21.968201 95.879 -20.6492
22.127390 95.877 -20.6770
22.287735 95.876 -20.7209
22.449242 95.873 -20.7799
22.611917 95.867 -20.8551
22.775772 95.859 -20.9409
22.940815 95.848 -21.0334
23.107054 95.833 -21.1289
23.274498 95.815 -21.2239
23.443153 95.793 -21.3129
23.613033 95.767 -21.3904
23.784142 95.739 -21.4530
23.956491 95.709 -21.4942
24.130091 95.679 -21.5170
24.304947 95.649 -21.5215
24.481071 95.620 -21.5100
24.658470 95.591 -21.4839
24.837156 95.564 -21.4461
25.017136 95.539 -21.3987
25.198421 95.516 -21.3461
25.381020 95.495 -21.2936
25.564941 95.474 -21.2391
25.750195 95.454 -21.1818
25.936790 95.434 -21.1221
26.124741 95.416 -21.0588
26.314051 95.400 -20.9951
26.504732 95.385 -20.9331
26.696796 95.371 -20.8741
26.890253 95.358 -20.8194
27.085112 95.346 -20.7701
27.281382 95.335 -20.7275
27.479073 95.324 -20.6920
27.678198 95.313 -20.6649
27.878765 95.302 -20.6440
28.080786 95.290 -20.6290
28.284271 95.277 -20.6160
28.489231 95.262 -20.6021
28.695675 95.245 -20.5850
28.903616 95.228 -20.5605
29.113064 95.212 -20.5310
29.324028 95.197 -20.4976
29.536524 95.182 -20.4610
29.750557 95.167 -20.4222
29.966141 95.153 -20.3820
30.183289 95.140 -20.3406
30.402010 95.129 -20.3020
30.622314 95.119 -20.2708
30.844217 95.110 -20.2460
31.067726 95.099 -20.2290
31.292856 95.088 -20.2170
31.519617 95.076 -20.2073
31.748020 95.064 -20.2010
31.978081 95.052 -20.2000
32.209808 95.038 -20.2000
32.443211 95.022 -20.1981
32.678310 95.005 -20.1920
32.915108 94.988 -20.1775
33.153625 94.970 -20.1570
33.393871 94.952 -20.1320
33.635857 94.934 -20.1011
33.879597 94.916 -20.0623
34.125103 94.899 -20.0181
34.372387 94.884 -19.9694
34.621464 94.869 -19.9181
34.872345 94.854 -19.8671
35.125042 94.840 -19.8141
35.379574 94.826 -19.7575
35.635948 94.812 -19.6981
35.894180 94.799 -19.6363
36.154285 94.787 -19.5711
36.416275 94.775 -19.5009
36.680161 94.765 -19.4271
36.945961 94.756 -19.3501
37.213688 94.749 -19.2721
37.483353 94.744 -19.1942
37.754974 94.741 -19.1201
38.028561 94.741 -19.0522
38.304131 94.743 -18.9951
38.581699 94.747 -18.9543
38.861279 94.752 -18.9290
39.142883 94.757 -18.9205
39.426529 94.762 -18.9280
39.712231 94.767 -18.9521
40.000000 94.770 -18.9899
40.289856 94.771 -19.0408
40.581814 94.770 -19.0989
40.875885 94.767 -19.1581
41.172089 94.762 -19.2189
41.470440 94.757 -19.2795
41.770950 94.752 -19.3409
42.073643 94.746 -19.4028
42.378525 94.739 -19.4669
42.685616 94.733 -19.5340
42.994934 94.727 -19.6069
43.306492 94.721 -19.6889
43.620308 94.714 -19.7789
43.936401 94.706 -19.8771
44.254780 94.697 -19.9828
44.575470 94.686 -20.0967
44.898483 94.672 -20.2148
45.223835 94.655 -20.3341
45.551544 94.636 -20.4518
45.881630 94.615 -20.5641
46.214108 94.592 -20.6708
46.548996 94.567 -20.7714
46.886307 94.541 -20.8639
47.226067 94.513 -20.9458
47.568283 94.484 -21.0179
47.912983 94.455 -21.0797
48.260181 94.425 -21.1319
48.609894 94.395 -21.1751
48.962143 94.364 -21.2100
49.316940 94.334 -21.2369
49.674313 94.304 -21.2570
50.034271 94.274 -21.2713
50.396843 94.243 -21.2800
50.762039 94.213 -21.2836
51.129883 94.182 -21.2820
51.500389 94.151 -21.2759
51.873581 94.120 -21.2640
52.249481 94.089 -21.2460
52.628101 94.057 -21.2200
53.009464 94.023 -21.1857
53.393593 93.989 -21.1391
53.780506 93.955 -21.0755
54.170223 93.921 -20.9971
54.562763 93.889 -20.9040
54.958145 93.858 -20.7982
55.356396 93.829 -20.6815
55.757530 93.801 -20.5552
56.161572 93.776 -20.4192
56.568542 93.753 -20.2792
56.978462 93.734 -20.1406
57.391350 93.718 -20.0042
57.807232 93.702 -19.8736
58.226128 93.688 -19.7472
58.648056 93.676 -19.6247
59.073048 93.664 -19.5062
59.501114 93.652 -19.3928
59.932281 93.641 -19.2812
60.366577 93.630 -19.1679
60.804020 93.619 -19.0542
61.244629 93.610 -18.9397
61.688435 93.603 -18.8262
62.135452 93.596 -18.7153
62.585712 93.591 -18.6072
63.039234 93.588 -18.5011
63.496040 93.587 -18.4022
63.956161 93.588 -18.3145
64.419617 93.590 -18.2401
64.886421 93.593 -18.1835
65.356621 93.596 -18.1411
65.830215 93.597 -18.1116
66.307251 93.597 -18.0920
66.787743 93.596 -18.0800
67.271713 93.593 -18.0720
67.759193 93.588 -18.0653
68.250206 93.581 -18.0560
68.744774 93.573 -18.0384
69.242928 93.565 -18.0150
69.744690 93.559 -17.9846
70.250084 93.554 -17.9531
70.759148 93.551 -17.9264
71.271896 93.548 -17.9040
71.788361 93.545 -17.8875
72.308571 93.543 -17.8770
72.832550 93.542 -17.8731
73.360321 93.540 -17.8770
73.891922 93.538 -17.8911
74.427376 93.535 -17.9120
74.966705 93.530 -17.9366
75.509949 93.525 -17.9659
76.057121 93.520 -17.9993
76.608261 93.514 -18.0379
77.163399 93.507 -18.0837
77.722557 93.499 -18.1339
78.285767 93.489 -18.1874
78.853058 93.476 -18.2409
79.424461 93.461 -18.2927
80.000000 93.443 -18.3369
80.579712 93.421 -18.3680
81.163628 93.398 -18.3840
81.751770 93.375 -18.3803
82.344177 93.352 -18.3591
82.940880 93.330 -18.3208
83.541901 93.308 -18.2661
84.147285 93.287 -18.1941
84.757050 93.269 -18.1102
85.371231 93.255 -18.0183
85.989868 93.244 -17.9222
86.612984 93.235 -17.8271
87.240616 93.227 -17.7332
87.872803 93.221 -17.6419
88.509560 93.217 -17.5542
89.150940 93.215 -17.4715
89.796967 93.214 -17.3932
90.447670 93.213 -17.3197
91.103088 93.213 -17.2491
91.763260 93.213 -17.1796
92.428215 93.215 -17.1111
93.097992 93.218 -17.0430
93.772614 93.222 -16.9761
94.452133 93.228 -16.9101
95.136566 93.236 -16.8481
95.825966 93.246 -16.7920
96.520363 93.259 -16.7451
97.219788 93.274 -16.7106
97.924286 93.292 -16.6910
98.633881 93.311 -16.6901
99.348625 93.332 -16.7079
100.068542 93.353 -16.7455
100.793686 93.374 -16.8038
101.524078 93.395 -16.8849
102.259766 93.416 -16.9867
103.000778 93.435 -17.1093
103.747162 93.452 -17.2487
104.498962 93.466 -17.4018
105.256203 93.479 -17.5667
106.018929 93.490 -17.7408
106.787186 93.499 -17.9226
107.561012 93.505 -18.1103
108.340446 93.510 -18.3017
109.125526 93.513 -18.4939
109.916290 93.514 -18.6876
110.712791 93.515 -18.8822
111.515060 93.515 -19.0796
112.323143 93.515 -19.2807
113.137085 93.515 -19.4876
113.956924 93.515 -19.7020
114.782700 93.514 -19.9254
115.614464 93.512 -20.1601
116.452255 93.509 -20.4055
117.296112 93.505 -20.6626
118.146095 93.498 -20.9284
119.002228 93.489 -21.2008
119.864563 93.477 -21.4792
120.733154 93.463 -21.7633
121.608040 93.447 -22.0504
122.489258 93.427 -22.3385
123.376869 93.405 -22.6253
124.270905 93.381 -22.9073
125.171425 93.355 -23.1865
126.078468 93.328 -23.4638
126.992081 93.299 -23.7384
127.912323 93.267 -24.0095
128.839233 93.234 -24.2775
129.772842 93.200 -24.5418
130.713242 93.165 -24.8035
131.660431 93.129 -25.0633
132.614502 93.090 -25.3203
133.575485 93.049 -25.5733
134.543427 93.006 -25.8225
135.518387 92.963 -26.0681
136.500412 92.918 -26.3095
137.489548 92.871 -26.5472
138.485855 92.821 -26.7784
139.489380 92.769 -27.0001
140.500168 92.716 -27.2135
141.518295 92.662 -27.4193
142.543793 92.607 -27.6165
143.576721 92.549 -27.8050
144.617142 92.490 -27.9836
145.665100 92.431 -28.1505
146.720642 92.370 -28.3076
147.783844 92.309 -28.4562
148.854752 92.246 -28.5956
149.933411 92.182 -28.7260
151.019897 92.117 -28.8457
152.114243 92.051 -28.9530
153.216522 91.984 -29.0487
154.326797 91.917 -29.1329
155.445114 91.849 -29.2068
156.571533 91.782 -29.2719
157.706116 91.714 -29.3279
158.848923 91.645 -29.3751
160.000000 91.576 -29.4139
161.159424 91.507 -29.4449
162.327255 91.436 -29.4670
163.503540 91.365 -29.4795
164.688354 91.292 -29.4810
165.881760 91.219 -29.4700
167.083801 91.144 -29.4451
168.294571 91.069 -29.4043
169.514099 90.993 -29.3472
170.742462 90.917 -29.2720
171.979736 90.841 -29.1803
173.225967 90.766 -29.0727
174.481232 90.692 -28.9503
175.745605 90.619 -28.8142
177.019119 90.547 -28.6654
178.301880 90.477 -28.5040
179.593933 90.408 -28.3334
180.895340 90.341 -28.1574
182.206177 90.275 -27.9754
183.526520 90.210 -27.7880
184.856430 90.145 -27.5964
186.195984 90.082 -27.4024
187.545227 90.020 -27.2055
188.904266 89.957 -27.0064
190.273132 89.894 -26.8035
191.651932 89.832 -26.5957
193.040726 89.769 -26.3826
194.439575 89.706 -26.1638
195.848572 89.643 -25.9377
197.267761 89.579 -25.7021
198.697250 89.514 -25.4576
200.137085 89.451 -25.2049
201.587372 89.387 -24.9416
203.048157 89.322 -24.6663
204.519531 89.256 -24.3769
206.001556 89.191 -24.0707
207.494324 89.126 -23.7478
208.997925 89.062 -23.4075
210.512405 88.998 -23.0499
212.037857 88.936 -22.6743
213.574371 88.875 -22.2820
215.122025 88.816 -21.8727
216.680893 88.760 -21.4492
218.251053 88.707 -21.0131
219.832581 88.656 -20.5663
221.425583 88.609 -20.1105
223.030121 88.564 -19.6472
224.646286 88.522 -19.1778
226.274170 88.482 -18.7042
227.913849 88.447 -18.2285
229.565399 88.414 -17.7522
231.228928 88.383 -17.2769
232.904510 88.355 -16.8044
234.592224 88.331 -16.3357
236.292191 88.309 -15.8742
238.004456 88.290 -15.4237
239.729126 88.272 -14.9842
241.466309 88.255 -14.5576
243.216080 88.239 -14.1411
244.978516 88.222 -13.7326
246.753738 88.206 -13.3322
248.541809 88.190 -12.9398
250.342850 88.174 -12.5531
252.156937 88.156 -12.1715
253.984161 88.136 -11.7900
255.824646 88.114 -11.4041
257.678467 88.092 -11.0120
259.545685 88.070 -10.6107
261.426483 88.047 -10.1990
263.320862 88.023 -9.7756
265.229004 87.998 -9.3382
267.150970 87.975 -8.8842
269.086853 87.952 -8.4144
271.036774 87.931 -7.9288
273.000824 87.912 -7.4275
274.979095 87.894 -6.9099
276.971710 87.878 -6.3776
278.978760 87.867 -5.8308
281.000336 87.859 -5.2735
283.036591 87.855 -4.7095
285.087585 87.854 -4.1407
287.153442 87.858 -3.5695
289.234283 87.866 -2.9985
291.330200 87.877 -2.4313
293.441284 87.892 -1.8685
295.567688 87.911 -1.3110
297.709503 87.933 -0.7624
299.866821 87.960 -0.2272
302.039795 87.989 0.2955
304.228485 88.019 0.8048
306.433044 88.052 1.3016
308.653595 88.087 1.7871
310.890228 88.125 2.2587
313.143066 88.165 2.7140
315.412231 88.206 3.1538
317.697845 88.248 3.5780
320.000000 88.292 3.9878
322.318848 88.337 4.3839
324.654510 88.382 4.7668
327.007080 88.427 5.1371
329.376709 88.473 5.4959
331.763519 88.520 5.8444
334.167603 88.569 6.1829
336.589142 88.617 6.5123
339.028198 88.666 6.8321
341.484924 88.717 7.1429
343.959473 88.770 7.4422
346.451935 88.825 7.7282
348.962463 88.881 7.9993
351.491211 88.938 8.2543
354.038239 88.996 8.4903
356.603760 89.056 8.7051
359.187866 89.118 8.8955
361.790680 89.179 9.0563
364.412354 89.240 9.1916
367.053040 89.298 9.3036
369.712860 89.355 9.3928
372.391968 89.410 9.4590
375.090454 89.463 9.5069
377.808533 89.510 9.5389
380.546265 89.554 9.5619
383.303864 89.594 9.5836
386.081451 89.631 9.6049
388.879150 89.666 9.6293
391.697144 89.700 9.6569
394.535522 89.731 9.6890
397.394501 89.761 9.7259
400.274170 89.790 9.7687
403.174744 89.818 9.8158
406.096313 89.847 9.8659
409.039062 89.875 9.9188
412.003113 89.901 9.9734
414.988647 89.927 10.0318
417.995850 89.953 10.0963
421.024811 89.978 10.1658
424.075714 90.003 10.2394
427.148743 90.028 10.3187
430.244049 90.054 10.4051
433.361786 90.080 10.4977
436.502106 90.107 10.5977
439.665161 90.136 10.7007
442.851166 90.167 10.8032
446.060242 90.201 10.9027
449.292572 90.236 10.9953
452.548340 90.272 11.0807
455.827698 90.310 11.1580
459.130798 90.349 11.2248
462.457855 90.389 11.2789
465.809021 90.430 11.3189
469.184448 90.471 11.3418
472.584381 90.513 11.3500
476.008911 90.553 11.3452
479.458252 90.593 11.3271
482.932617 90.632 11.2963
486.432159 90.671 11.2512
489.957031 90.709 11.1887
493.507477 90.746 11.1133
497.083618 90.779 11.0279
500.685699 90.809 10.9343
504.313873 90.838 10.8349
507.968323 90.866 10.7303
511.649292 90.890 10.6210
515.356934 90.912 10.5104
519.091370 90.932 10.4021
522.852966 90.950 10.2963
526.641724 90.967 10.1950
530.458008 90.983 10.0963
534.301941 90.997 9.9991
538.173706 91.011 9.9033
542.073547 91.024 9.8088
546.001648 91.037 9.7143
549.958191 91.048 9.6181
553.943420 91.058 9.5223
557.957520 91.066 9.4283
562.000671 91.073 9.3363
566.073181 91.079 9.2469
570.175171 91.084 9.1603
574.306885 91.087 9.0764
578.468567 91.088 8.9963
582.660400 91.089 8.9212
586.882568 91.089 8.8502
591.135376 91.087 8.7823
595.419006 91.084 8.7192
599.733643 91.079 8.6614
604.079590 91.072 8.6122
608.456970 91.063 8.5740
612.866089 91.052 8.5491
617.307190 91.040 8.5404
621.780457 91.027 8.5479
626.286133 91.014 8.5718
630.824463 91.001 8.6138
635.395691 90.987 8.6764
640.000000 90.973 8.7587
644.637695 90.962 8.8619
649.309021 90.952 8.9826
654.014160 90.945 9.1179
658.753418 90.940 9.2665
663.527039 90.938 9.4269
668.335205 90.938 9.5964
673.178284 90.942 9.7727
678.056396 90.950 9.9524
682.969849 90.961 10.1326
687.918945 90.976 10.3094
692.903870 90.995 10.4795
697.924927 91.017 10.6385
702.982422 91.043 10.7814
708.076477 91.071 10.9066
713.207520 91.101 11.0107
718.375732 91.132 11.0937
723.581360 91.164 11.1553
728.824707 91.197 11.1939
734.106079 91.230 11.2072
739.425720 91.261 11.1981
744.783936 91.289 11.1673
750.180908 91.316 11.1192
755.617065 91.341 11.0580
761.092529 91.363 10.9843
766.607727 91.382 10.8991
772.162903 91.399 10.8053
777.758301 91.412 10.7058
783.394287 91.423 10.6024
789.071045 91.431 10.4981
794.789001 91.437 10.3924
800.548340 91.440 10.2846
806.349487 91.440 10.1784
812.192627 91.436 10.0766
818.078125 91.429 9.9813
824.006226 91.419 9.8944
829.977295 91.406 9.8192
835.991699 91.390 9.7588
842.049622 91.370 9.7161
848.151428 91.348 9.6944
854.297485 91.324 9.6959
860.488098 91.299 9.7238
866.723572 91.272 9.7787
873.004211 91.245 9.8633
