* Measurement data measured by REW V5.20.13
* Source: C:\Users\kurin\Desktop\Targets and Curves\Resolve\Img\Files\nectar sound ambrosia_SPL.txt
* Format: Comma/Tab/Space delimited data
* Dated: Aug 15, 2023 12:15:22 AM
* REW Settings:
*  C-weighting compensation: Off
*  Target level: 75.0 dB
* Note: ; Measurement imported from C:\Users\kurin\Desktop\Targets and Curves\Resolve\Img\Files\nectar sound ambrosia_SPL.txt Format: Comma/Tab/Space delimited data 623 values loaded, 5 Hz to 39,792 Hz log spaced 
* Measurement: nectar sound ambrosia_SPL
* Smoothing: 1/48 octave
* Frequency Step: 1/96 octave
* Start Frequency: 5.000 Hz
*
* Freq(Hz) SPL(dB) Phase(degrees)
5.000000 64.381 85.8990
5.036232 64.409 85.8772
5.072727 64.440 85.8540
5.109486 64.476 85.8277
5.146511 64.518 85.7980
5.183805 64.568 85.7627
5.221369 64.622 85.7250
5.259205 64.678 85.6876
5.297316 64.736 85.6490
5.335702 64.799 85.6083
5.374367 64.863 85.5670
5.413311 64.927 85.5264
5.452538 64.990 85.4860
5.492050 65.053 85.4456
5.531847 65.116 85.4050
5.571934 65.179 85.3636
5.612310 65.243 85.3220
5.652979 65.307 85.2806
5.693943 65.370 85.2390
5.735204 65.433 85.1966
5.776763 65.496 85.1540
5.818624 65.559 85.1116
5.860788 65.623 85.0690
5.903258 65.687 85.0257
5.946035 65.750 84.9820
5.989123 65.813 84.9381
6.032523 65.876 84.8940
6.076237 65.939 84.8496
6.120268 66.003 84.8050
6.164618 66.067 84.7602
6.209289 66.130 84.7150
6.254284 66.193 84.6692
6.299605 66.256 84.6230
6.345255 66.319 84.5766
6.391235 66.383 84.5300
6.437549 66.447 84.4831
6.484198 66.510 84.4360
6.531185 66.573 84.3887
6.578513 66.636 84.3410
6.626183 66.699 84.2927
6.674199 66.763 84.2440
6.722563 66.827 84.1951
6.771278 66.890 84.1460
6.820345 66.953 84.0967
6.869768 67.016 84.0470
6.919549 67.079 83.9968
6.969691 67.143 83.9460
7.020196 67.207 83.8946
7.071068 67.270 83.8430
7.122308 67.333 83.7917
7.173919 67.396 83.7400
7.225904 67.459 83.6873
7.278266 67.523 83.6340
7.331007 67.587 83.5806
7.384131 67.650 83.5270
7.437639 67.713 83.4732
7.491535 67.776 83.4190
7.545822 67.839 83.3642
7.600502 67.903 83.3090
7.655579 67.967 83.2538
7.711054 68.030 83.1980
7.766932 68.093 83.1413
7.823214 68.156 83.0840
7.879904 68.219 83.0266
7.937005 68.283 82.9690
7.994520 68.346 82.9112
8.052452 68.410 82.8530
8.110803 68.474 82.7943
8.169578 68.537 82.7350
8.228777 68.600 82.6753
8.288406 68.663 82.6150
8.348468 68.726 82.5543
8.408964 68.790 82.4930
8.469899 68.854 82.4312
8.531276 68.917 82.3690
8.593097 68.980 82.3068
8.655366 69.043 82.2440
8.718086 69.106 82.1803
8.781260 69.170 82.1160
8.844893 69.234 82.0517
8.908987 69.297 81.9870
8.973545 69.360 81.9218
9.038571 69.423 81.8560
9.104069 69.486 81.7898
9.170040 69.550 81.7230
9.236490 69.614 81.6553
9.303422 69.677 81.5870
9.370838 69.740 81.5187
9.438744 69.803 81.4500
9.507140 69.866 81.3808
9.576033 69.930 81.3110
9.645425 69.994 81.2408
9.715320 70.057 81.1700
9.785721 70.120 81.0984
9.856632 70.183 81.0260
9.928058 70.246 80.9532
10.000000 70.310 80.8800
10.072464 70.374 80.8069
10.145453 70.437 80.7331
10.218971 70.500 80.6579
10.293022 70.563 80.5820
10.367610 70.626 80.5063
10.442738 70.690 80.4300
10.518411 70.754 80.3528
10.594631 70.817 80.2750
10.671404 70.880 80.1968
10.748734 70.943 80.1180
10.826623 71.006 80.0383
10.905077 71.070 79.9581
10.984100 71.134 79.8774
11.063695 71.197 79.7961
11.143867 71.260 79.7138
11.224621 71.323 79.6310
11.305959 71.386 79.5479
11.387886 71.450 79.4641
11.470407 71.514 79.3794
11.553527 71.577 79.2940
11.637249 71.640 79.2079
11.721577 71.703 79.1211
11.806517 71.766 79.0339
11.892071 71.830 78.9461
11.978246 71.894 78.8574
12.065045 71.957 78.7680
12.152473 72.020 78.6779
12.240536 72.083 78.5870
12.329235 72.146 78.4954
12.418578 72.210 78.4031
12.508568 72.274 78.3099
12.599211 72.337 78.2161
12.690510 72.400 78.1214
12.782471 72.463 78.0261
12.875097 72.526 77.9305
12.968395 72.590 77.8341
13.062370 72.654 77.7365
13.157025 72.717 77.6380
13.252366 72.780 77.5384
13.348398 72.843 77.4381
13.445127 72.906 77.3375
13.542556 72.970 77.2361
13.640691 73.033 77.1335
13.739536 73.097 77.0300
13.839099 73.161 76.9259
13.939383 73.224 76.8211
14.040393 73.287 76.7155
14.142136 73.350 76.6090
14.244616 73.413 76.5015
14.347837 73.477 76.3930
14.451808 73.541 76.2835
14.556532 73.604 76.1730
14.662014 73.667 76.0621
14.768262 73.730 75.9501
14.875278 73.793 75.8366
14.983070 73.857 75.7221
15.091644 73.921 75.6071
15.201005 73.984 75.4911
15.311157 74.047 75.3736
15.422109 74.110 75.2551
15.533863 74.173 75.1361
15.646428 74.237 75.0161
15.759809 74.301 74.8946
15.874010 74.364 74.7721
15.989040 74.427 74.6491
16.104904 74.490 74.5251
16.221605 74.553 74.3998
16.339155 74.617 74.2732
16.457554 74.680 74.1452
16.576813 74.744 74.0161
16.696936 74.807 73.8861
16.817928 74.870 73.7551
16.939798 74.933 73.6227
17.062551 74.997 73.4892
17.186193 75.061 73.3547
17.310732 75.124 73.2191
17.436172 75.187 73.0822
17.562521 75.250 72.9441
17.689787 75.313 72.8047
17.817974 75.377 72.6642
17.947090 75.441 72.5227
18.077143 75.504 72.3801
18.208138 75.567 72.2362
18.340080 75.630 72.0912
18.472980 75.693 71.9447
18.606844 75.757 71.7971
18.741676 75.821 71.6480
18.877487 75.884 71.4982
19.014280 75.947 71.3479
19.152065 76.010 71.1972
19.290850 76.073 71.0464
19.430639 76.137 70.8951
19.571442 76.201 70.7430
19.713264 76.266 70.5892
19.856115 76.331 70.4337
20.000000 76.397 70.2742
20.144928 76.464 70.1087
20.290907 76.532 69.9362
20.437943 76.599 69.7540
20.586044 76.666 69.5651
20.735220 76.730 69.3711
20.885475 76.794 69.1732
21.036821 76.858 68.9736
21.189262 76.921 68.7723
21.342808 76.983 68.5693
21.497467 77.045 68.3672
21.653246 77.105 68.1691
21.810154 77.165 67.9743
21.968201 77.226 67.7841
22.127390 77.288 67.5952
22.287735 77.350 67.4046
22.449242 77.413 67.2122
22.611917 77.477 67.0173
22.775772 77.541 66.8182
22.940815 77.606 66.6130
23.107054 77.672 66.4013
23.274498 77.737 66.1823
23.443153 77.803 65.9553
23.613033 77.869 65.7193
23.784142 77.935 65.4742
23.956491 78.000 65.2186
24.130091 78.063 64.9553
24.304947 78.125 64.6862
24.481071 78.185 64.4124
24.658470 78.244 64.1348
24.837156 78.301 63.8554
25.017136 78.357 63.5758
25.198421 78.411 63.2983
25.381020 78.464 63.0261
25.564941 78.516 62.7582
25.750195 78.568 62.4947
25.936790 78.619 62.2363
26.124741 78.669 61.9833
26.314051 78.719 61.7373
26.504732 78.769 61.5012
26.696796 78.820 61.2713
26.890253 78.873 61.0451
27.085112 78.927 60.8213
27.281382 78.982 60.5987
27.479073 79.039 60.3743
27.678198 79.098 60.1464
27.878765 79.160 59.9093
28.080786 79.223 59.6570
28.284271 79.287 59.3894
28.489231 79.351 59.1042
28.695675 79.415 58.8014
28.903616 79.478 58.4794
29.113064 79.539 58.1405
29.324028 79.597 57.7841
29.536524 79.653 57.4174
29.750557 79.704 57.0470
29.966141 79.753 56.6744
30.183289 79.800 56.3025
30.402010 79.844 55.9334
30.622314 79.885 55.5694
30.844217 79.923 55.2134
31.067726 79.960 54.8706
31.292856 79.997 54.5375
31.519617 80.034 54.2128
31.748020 80.071 53.8954
31.978081 80.107 53.5839
32.209808 80.144 53.2784
32.443211 80.181 52.9796
32.678310 80.219 52.6834
32.915108 80.257 52.3857
33.153625 80.296 52.0874
33.393871 80.334 51.7882
33.635857 80.373 51.4875
33.879597 80.413 51.1847
34.125103 80.452 50.8784
34.372387 80.490 50.5664
34.621464 80.528 50.2505
34.872345 80.565 49.9318
35.125042 80.602 49.6104
35.379574 80.638 49.2865
35.635948 80.673 48.9604
35.894180 80.707 48.6320
36.154285 80.740 48.3025
36.416275 80.772 47.9728
36.680161 80.802 47.6435
36.945961 80.831 47.3147
37.213688 80.859 46.9885
37.483353 80.885 46.6669
37.754974 80.910 46.3505
38.028561 80.934 46.0409
38.304131 80.958 45.7374
38.581699 80.982 45.4397
38.861279 81.005 45.1474
39.142883 81.028 44.8596
39.426529 81.051 44.5774
39.712231 81.073 44.3020
40.000000 81.095 44.0324
40.289856 81.117 43.7681
40.581814 81.140 43.5084
40.875885 81.163 43.2528
41.172089 81.187 43.0004
41.470440 81.211 42.7504
41.770950 81.235 42.5024
42.073643 81.261 42.2568
42.378525 81.287 42.0103
42.685616 81.314 41.7599
42.994934 81.341 41.5054
43.306492 81.369 41.2456
43.620308 81.396 40.9814
43.936401 81.422 40.7125
44.254780 81.447 40.4414
44.575470 81.471 40.1708
44.898483 81.495 39.9004
45.223835 81.518 39.6308
45.551544 81.540 39.3634
45.881630 81.561 39.0993
46.214108 81.582 38.8394
46.548996 81.603 38.5860
46.886307 81.624 38.3364
47.226067 81.646 38.0893
47.568283 81.668 37.8434
47.912983 81.690 37.5972
48.260181 81.713 37.3504
48.609894 81.735 37.1026
48.962143 81.758 36.8534
49.316940 81.781 36.6018
49.674313 81.804 36.3484
50.034271 81.827 36.0937
50.396843 81.849 35.8374
50.762039 81.871 35.5788
51.129883 81.892 35.3194
51.500389 81.912 35.0604
51.873581 81.932 34.8024
52.249481 81.952 34.5473
52.628101 81.972 34.2924
53.009464 81.993 34.0356
53.393593 82.014 33.7774
53.780506 82.033 33.5178
54.170223 82.052 33.2574
54.562763 82.071 32.9973
54.958145 82.090 32.7364
55.356396 82.108 32.4735
55.757530 82.126 32.2104
56.161572 82.143 31.9487
56.568542 82.159 31.6884
56.978462 82.175 31.4307
57.391350 82.191 31.1745
57.807232 82.207 30.9190
58.226128 82.222 30.6644
58.648056 82.237 30.4110
59.073048 82.253 30.1574
59.501114 82.269 29.9025
59.932281 82.285 29.6465
60.366577 82.300 29.3890
60.804020 82.314 29.1304
61.244629 82.329 28.8711
61.688435 82.343 28.6104
62.135452 82.356 28.3471
62.585712 82.369 28.0835
63.039234 82.380 27.8218
63.496040 82.391 27.5614
63.956161 82.403 27.3029
64.419617 82.414 27.0445
64.886421 82.425 26.7837
65.356621 82.434 26.5234
65.830215 82.441 26.2656
66.307251 82.448 26.0105
66.787743 82.456 25.7596
67.271713 82.463 25.5125
67.759193 82.469 25.2689
68.250206 82.474 25.0294
68.744774 82.479 24.7952
69.242928 82.485 24.5644
69.744690 82.491 24.3356
70.250084 82.498 24.1084
70.759148 82.503 23.8822
71.271896 82.509 23.6574
71.788361 82.515 23.4345
72.308571 82.522 23.2124
72.832550 82.528 22.9899
73.360321 82.534 22.7684
73.891922 82.539 22.5497
74.427376 82.545 22.3314
74.966705 82.551 22.1118
75.509949 82.558 21.8914
76.057121 82.564 21.6702
76.608261 82.569 21.4474
77.163399 82.575 21.2220
77.722557 82.580 20.9945
78.285767 82.584 20.7646
78.853058 82.588 20.5345
79.424461 82.590 20.3056
80.000000 82.592 20.0794
80.579712 82.593 19.8584
81.163628 82.593 19.6414
81.751770 82.593 19.4282
82.344177 82.593 19.2184
82.940880 82.593 19.0120
83.541901 82.593 18.8084
84.147285 82.593 18.6073
84.757050 82.593 18.4084
85.371231 82.593 18.2111
85.989868 82.593 18.0154
86.612984 82.593 17.8208
87.240616 82.593 17.6274
87.872803 82.593 17.4349
88.509560 82.593 17.2434
89.150940 82.593 17.0526
89.796967 82.593 16.8624
90.447670 82.593 16.6725
91.103088 82.593 16.4824
91.763260 82.593 16.2918
92.428215 82.593 16.1004
93.097992 82.593 15.9076
93.772614 82.593 15.7134
94.452133 82.593 15.5174
95.136566 82.592 15.3194
95.825966 82.590 15.1185
96.520363 82.588 14.9164
97.219788 82.584 14.7140
97.924286 82.580 14.5134
98.633881 82.575 14.3176
99.348625 82.569 14.1254
100.068542 82.563 13.9369
100.793686 82.557 13.7515
101.524078 82.551 13.5682
102.259766 82.544 13.3874
103.000778 82.537 13.2098
103.747162 82.530 13.0333
104.498962 82.524 12.8565
105.256203 82.517 12.6793
106.018929 82.510 12.5014
106.787186 82.502 12.3233
107.561012 82.494 12.1449
108.340446 82.484 11.9683
109.125526 82.473 11.7949
109.916290 82.461 11.6263
110.712791 82.448 11.4650
111.515060 82.435 11.3103
112.323143 82.422 11.1627
113.137085 82.409 11.0213
113.956924 82.396 10.8856
114.782700 82.383 10.7553
115.614464 82.370 10.6298
116.452255 82.358 10.5092
117.296112 82.347 10.3948
118.146095 82.336 10.2822
119.002228 82.327 10.1682
119.864563 82.319 10.0513
120.733154 82.311 9.9288
121.608040 82.303 9.8023
122.489258 82.295 9.6726
123.376869 82.286 9.5393
124.270905 82.277 9.4024
125.171425 82.267 9.2623
126.078468 82.256 9.1179
126.992081 82.243 8.9733
127.912323 82.228 8.8321
128.839233 82.211 8.6953
129.772842 82.194 8.5654
130.713242 82.176 8.4422
131.660431 82.158 8.3257
132.614502 82.139 8.2173
133.575485 82.118 8.1189
134.543427 82.097 8.0292
135.518387 82.078 7.9484
136.500412 82.060 7.8741
137.489548 82.041 7.8039
138.485855 82.023 7.7382
139.489380 82.006 7.6776
140.500168 81.989 7.6191
141.518295 81.974 7.5606
142.543793 81.960 7.5002
143.576721 81.946 7.4346
144.617142 81.931 7.3662
145.665100 81.915 7.2963
146.720642 81.899 7.2242
147.783844 81.883 7.1493
148.854752 81.867 7.0722
149.933411 81.849 6.9928
151.019897 81.829 6.9132
152.114243 81.807 6.8352
153.216522 81.784 6.7602
154.326797 81.759 6.6894
155.445114 81.732 6.6251
156.571533 81.703 6.5695
157.706116 81.672 6.5251
158.848923 81.639 6.4944
160.000000 81.604 6.4800
161.159424 81.568 6.4843
162.327255 81.530 6.5099
163.503540 81.491 6.5606
164.688354 81.451 6.6358
165.881760 81.413 6.7364
167.083801 81.376 6.8616
168.294571 81.340 7.0113
169.514099 81.306 7.1845
170.742462 81.274 7.3810
171.979736 81.245 7.5984
173.225967 81.219 7.8350
174.481232 81.197 8.0894
175.745605 81.178 8.3608
177.019119 81.164 8.6453
178.301880 81.155 8.9407
179.593933 81.152 9.2412
180.895340 81.153 9.5413
182.206177 81.160 9.8383
183.526520 81.171 10.1298
184.856430 81.188 10.4104
186.195984 81.210 10.6752
187.545227 81.236 10.9204
188.904266 81.266 11.1412
190.273132 81.298 11.3366
191.651932 81.332 11.5032
193.040726 81.368 11.6436
194.439575 81.403 11.7593
195.848572 81.439 11.8508
197.267761 81.474 11.9187
198.697250 81.509 11.9649
200.137085 81.543 11.9908
201.587372 81.575 11.9990
203.048157 81.605 11.9919
204.519531 81.634 11.9711
206.001556 81.660 11.9382
207.494324 81.685 11.8961
208.997925 81.708 11.8481
210.512405 81.729 11.7941
212.037857 81.748 11.7343
213.574371 81.765 11.6721
215.122025 81.780 11.6111
216.680893 81.793 11.5522
218.251053 81.805 11.4983
219.832581 81.817 11.4471
221.425583 81.828 11.3964
223.030121 81.839 11.3481
224.646286 81.848 11.3040
226.274170 81.857 11.2621
227.913849 81.867 11.2217
229.565399 81.878 11.1801
231.228928 81.888 11.1336
232.904510 81.897 11.0851
234.592224 81.905 11.0363
236.292191 81.912 10.9871
238.004456 81.919 10.9382
239.729126 81.925 10.8901
241.466309 81.930 10.8427
243.216080 81.933 10.7991
244.978516 81.935 10.7622
246.753738 81.936 10.7321
248.541809 81.937 10.7099
250.342850 81.939 10.6950
252.156937 81.940 10.6881
253.984161 81.942 10.6870
255.824646 81.945 10.6905
257.678467 81.950 10.6960
259.545685 81.956 10.6998
261.426483 81.962 10.7030
263.320862 81.967 10.7055
265.229004 81.973 10.7070
267.150970 81.979 10.7068
269.086853 81.986 10.7060
271.036774 81.992 10.7050
273.000824 81.997 10.7050
274.979095 82.002 10.7076
276.971710 82.007 10.7120
278.978760 82.013 10.7184
281.000336 82.019 10.7260
283.036591 82.025 10.7342
285.087585 82.032 10.7430
287.153442 82.039 10.7528
289.234283 82.047 10.7620
291.330200 82.055 10.7689
293.441284 82.064 10.7740
295.567688 82.072 10.7764
297.709503 82.079 10.7780
299.866821 82.087 10.7804
302.039795 82.095 10.7830
304.228485 82.103 10.7862
306.433044 82.111 10.7880
308.653595 82.120 10.7859
310.890228 82.129 10.7820
313.143066 82.136 10.7775
315.412231 82.143 10.7730
317.697845 82.150 10.7695
320.000000 82.157 10.7670
322.318848 82.164 10.7659
324.654510 82.171 10.7660
327.007080 82.178 10.7672
329.376709 82.185 10.7690
331.763519 82.192 10.7707
334.167603 82.199 10.7730
336.589142 82.206 10.7766
339.028198 82.213 10.7810
341.484924 82.220 10.7866
343.959473 82.227 10.7920
346.451935 82.235 10.7957
348.962463 82.244 10.7980
351.491211 82.251 10.7979
354.038239 82.258 10.7970
356.603760 82.265 10.7963
359.187866 82.271 10.7960
361.790680 82.277 10.7967
364.412354 82.282 10.7990
367.053040 82.287 10.8030
369.712860 82.292 10.8110
372.391968 82.295 10.8249
375.090454 82.298 10.8449
377.808533 82.302 10.8728
380.546265 82.306 10.9059
383.303864 82.311 10.9419
386.081451 82.317 10.9809
388.879150 82.323 11.0222
391.697144 82.329 11.0659
394.535522 82.336 11.1117
397.394501 82.344 11.1589
400.274170 82.352 11.2060
403.174744 82.361 11.2538
406.096313 82.369 11.3017
409.039062 82.378 11.3518
412.003113 82.386 11.4071
414.988647 82.395 11.4658
417.995850 82.405 11.5279
421.024811 82.416 11.5918
424.075714 82.427 11.6554
427.148743 82.439 11.7208
430.244049 82.451 11.7900
433.361786 82.463 11.8618
436.502106 82.477 11.9356
439.665161 82.492 12.0108
442.851166 82.507 12.0867
446.060242 82.523 12.1628
449.292572 82.540 12.2384
452.548340 82.559 12.3128
455.827698 82.578 12.3843
459.130798 82.598 12.4548
462.457855 82.618 12.5253
465.809021 82.639 12.5958
469.184448 82.661 12.6665
472.584381 82.684 12.7368
476.008911 82.707 12.8059
479.458252 82.731 12.8748
482.932617 82.756 12.9446
486.432159 82.782 13.0138
489.957031 82.810 13.0820
493.507477 82.840 13.1468
497.083618 82.872 13.2061
500.685699 82.905 13.2588
504.313873 82.939 13.3037
507.968323 82.975 13.3399
511.649292 83.011 13.3664
515.356934 83.048 13.3830
519.091370 83.086 13.3895
522.852966 83.125 13.3850
526.641724 83.164 13.3681
530.458008 83.203 13.3401
534.301941 83.241 13.3015
538.173706 83.279 13.2542
542.073547 83.317 13.2004
546.001648 83.354 13.1402
549.958191 83.391 13.0740
553.943420 83.427 13.0022
557.957520 83.463 12.9255
562.000671 83.499 12.8433
566.073181 83.535 12.7551
570.175171 83.572 12.6613
574.306885 83.608 12.5621
578.468567 83.643 12.4574
582.660400 83.678 12.3470
586.882568 83.713 12.2314
591.135376 83.748 12.1104
595.419006 83.782 11.9854
599.733643 83.816 11.8583
604.079590 83.850 11.7275
608.456970 83.885 11.5926
612.866089 83.921 11.4515
617.307190 83.956 11.3018
621.780457 83.992 11.1435
626.286133 84.028 10.9763
630.824463 84.064 10.7996
635.395691 84.099 10.6130
640.000000 84.134 10.4167
644.637695 84.167 10.2103
649.309021 84.200 9.9957
654.014160 84.232 9.7750
658.753418 84.263 9.5478
663.527039 84.293 9.3150
668.335205 84.323 9.0758
673.178284 84.352 8.8295
678.056396 84.380 8.5759
682.969849 84.407 8.3139
687.918945 84.434 8.0450
692.903870 84.459 7.7700
697.924927 84.482 7.4890
702.982422 84.504 7.2023
708.076477 84.526 6.9101
713.207520 84.546 6.6119
718.375732 84.565 6.3091
723.581360 84.582 6.0033
728.824707 84.598 5.6931
734.106079 84.614 5.3773
739.425720 84.628 5.0562
744.783936 84.640 4.7290
750.180908 84.650 4.3982
755.617065 84.658 4.0658
761.092529 84.664 3.7322
766.607727 84.668 3.3976
772.162903 84.670 3.0652
777.758301 84.669 2.7370
783.394287 84.665 2.4161
789.071045 84.660 2.1069
794.789001 84.655 1.8071
800.548340 84.650 1.5165
806.349487 84.646 1.2330
812.192627 84.641 0.9559
818.078125 84.637 0.6810
824.006226 84.636 0.4064
829.977295 84.636 0.1250
835.991699 84.638 -0.1704
842.049622 84.641 -0.4808
848.151428 84.642 -0.8102
854.297485 84.641 -1.1567
860.488098 84.640 -1.5199
866.723572 84.636 -1.8996
873.004211 84.628 -2.2968
879.330322 84.617 -2.7065
885.702332 84.601 -3.1254
892.120483 84.581 -3.5495
898.585144 84.556 -3.9746
905.096680 84.526 -4.3984
911.655396 84.492 -4.8182
918.261597 84.452 -5.2305
924.915710 84.408 -5.6322
931.618042 84.358 -6.0196
938.368896 84.305 -6.3897
945.168762 84.246 -6.7377
952.017822 84.182 -7.0593
958.916504 84.114 -7.3509
965.865234 84.044 -7.6083
972.864319 83.970 -7.8302
979.914062 83.895 -8.0151
987.014954 83.817 -8.1605
994.167236 83.738 -8.2638
1001.371399 83.659 -8.3249
1008.627747 83.582 -8.3408
1015.936646 83.507 -8.3182
