* Measurement data measured by REW V5.20.13
* Source: C:\Users\kurin\Desktop\Targets and Curves\Resolve\Img\Lecram\Dan_Clark_Audio_Aeon_X_Closed_5128_SPL.txt
* Format: Comma/Tab/Space delimited data
* Dated: Aug 15, 2023 3:24:15 PM
* REW Settings:
*  C-weighting compensation: Off
*  Target level: 75.0 dB
* Note: ; Measurement imported from C:\Users\kurin\Desktop\Targets and Curves\Resolve\Img\Lecram\Dan_Clark_Audio_Aeon_X_Closed_5128_SPL.txt Format: Comma/Tab/Space delimited data 623 values loaded, 5 Hz to 39,792 Hz log spaced 
* Measurement: Dan_Clark_Audio_Aeon_X_Clo
* Smoothing: 1/48 octave
* Frequency Step: 1/96 octave
* Start Frequency: 5.000 Hz
*
* Freq(Hz) SPL(dB) Phase(degrees)
5.000000 83.853 37.7860
5.036232 83.865 37.7758
5.072727 83.879 37.7650
5.109486 83.895 37.7528
5.146511 83.913 37.7390
5.183805 83.935 37.7231
5.221369 83.959 37.7060
5.259205 83.983 37.6888
5.297316 84.009 37.6710
5.335702 84.037 37.6521
5.374367 84.065 37.6330
5.413311 84.093 37.6145
5.452538 84.121 37.5960
5.492050 84.149 37.5771
5.531847 84.177 37.5580
5.571934 84.205 37.5391
5.612310 84.233 37.5200
5.652979 84.261 37.5006
5.693943 84.289 37.4810
5.735204 84.317 37.4615
5.776763 84.345 37.4420
5.818624 84.372 37.4226
5.860788 84.400 37.4030
5.903258 84.428 37.3826
5.946035 84.456 37.3620
5.989123 84.484 37.3420
6.032523 84.512 37.3220
6.076237 84.540 37.3016
6.120268 84.568 37.2810
6.164618 84.596 37.2601
6.209289 84.624 37.2390
6.254284 84.652 37.2181
6.299605 84.680 37.1970
6.345255 84.708 37.1756
6.391235 84.736 37.1540
6.437549 84.764 37.1321
6.484198 84.792 37.1100
6.531185 84.820 37.0880
6.578513 84.848 37.0660
6.626183 84.876 37.0441
6.674199 84.904 37.0220
6.722563 84.931 36.9991
6.771278 84.959 36.9760
6.820345 84.987 36.9536
6.869768 85.015 36.9310
6.919549 85.043 36.9076
6.969691 85.071 36.8840
7.020196 85.099 36.8606
7.071068 85.127 36.8370
7.122308 85.155 36.8131
7.173919 85.183 36.7890
7.225904 85.211 36.7646
7.278266 85.239 36.7400
7.331007 85.267 36.7156
7.384131 85.295 36.6910
7.437639 85.323 36.6661
7.491535 85.351 36.6410
7.545822 85.379 36.6161
7.600502 85.407 36.5910
7.655579 85.435 36.5657
7.711054 85.463 36.5400
7.766932 85.491 36.5136
7.823214 85.519 36.4870
7.879904 85.546 36.4611
7.937005 85.574 36.4350
7.994520 85.602 36.4081
8.052452 85.630 36.3810
8.110803 85.658 36.3541
8.169578 85.686 36.3270
8.228777 85.714 36.2996
8.288406 85.742 36.2720
8.348468 85.770 36.2441
8.408964 85.798 36.2160
8.469899 85.826 36.1876
8.531276 85.854 36.1590
8.593097 85.882 36.1306
8.655366 85.910 36.1020
8.718086 85.938 36.0726
8.781260 85.966 36.0430
8.844893 85.994 36.0136
8.908987 86.022 35.9840
8.973545 86.050 35.9541
9.038571 86.078 35.9240
9.104069 86.105 35.8941
9.170040 86.133 35.8640
9.236490 86.161 35.8332
9.303422 86.189 35.8020
9.370838 86.217 35.7706
9.438744 86.245 35.7390
9.507140 86.273 35.7076
9.576033 86.301 35.6760
9.645425 86.329 35.6436
9.715320 86.357 35.6110
9.785721 86.385 35.5786
9.856632 86.413 35.5460
9.928058 86.441 35.5131
10.000000 86.469 35.4800
10.072464 86.497 35.4467
10.145453 86.525 35.4130
10.218971 86.553 35.3787
10.293022 86.581 35.3440
10.367610 86.609 35.3096
10.442738 86.637 35.2750
10.518411 86.664 35.2401
10.594631 86.692 35.2050
10.671404 86.720 35.1696
10.748734 86.748 35.1340
10.826623 86.776 35.0981
10.905077 86.804 35.0620
10.984100 86.832 35.0257
11.063695 86.860 34.9890
11.143867 86.888 34.9516
11.224621 86.916 34.9140
11.305959 86.944 34.8766
11.387886 86.972 34.8390
11.470407 87.000 34.8012
11.553527 87.028 34.7630
11.637249 87.056 34.7241
11.721577 87.084 34.6850
11.806517 87.112 34.6462
11.892071 87.140 34.6070
11.978246 87.168 34.5672
12.065045 87.196 34.5270
12.152473 87.224 34.4866
12.240536 87.252 34.4460
12.329235 87.279 34.4051
12.418578 87.307 34.3640
12.508568 87.335 34.3227
12.599211 87.363 34.2810
12.690510 87.391 34.2392
12.782471 87.419 34.1970
12.875097 87.447 34.1542
12.968395 87.475 34.1110
13.062370 87.503 34.0676
13.157025 87.531 34.0240
13.252366 87.559 33.9806
13.348398 87.587 33.9370
13.445127 87.615 33.8928
13.542556 87.643 33.8481
13.640691 87.671 33.8027
13.739536 87.699 33.7570
13.839099 87.727 33.7117
13.939383 87.755 33.6660
14.040393 87.783 33.6197
14.142136 87.811 33.5730
14.244616 87.838 33.5261
14.347837 87.866 33.4790
14.451808 87.894 33.4316
14.556532 87.922 33.3840
14.662014 87.950 33.3362
14.768262 87.978 33.2881
14.875278 88.006 33.2392
14.983070 88.034 33.1901
15.091644 88.062 33.1407
15.201005 88.090 33.0910
15.311157 88.118 33.0412
15.422109 88.146 32.9910
15.533863 88.174 32.9407
15.646428 88.202 32.8900
15.759809 88.230 32.8387
15.874010 88.258 32.7870
15.989040 88.286 32.7357
16.104904 88.314 32.6840
16.221605 88.342 32.6317
16.339155 88.370 32.5791
16.457554 88.398 32.5267
16.576813 88.426 32.4740
16.696936 88.453 32.4206
16.817928 88.481 32.3670
16.939798 88.509 32.3141
17.062551 88.537 32.2611
17.186193 88.565 32.2071
17.310732 88.593 32.1530
17.436172 88.621 32.0995
17.562521 88.649 32.0460
17.689787 88.677 31.9926
17.817974 88.705 31.9391
17.947090 88.733 31.8854
18.077143 88.761 31.8320
18.208138 88.789 31.7792
18.340080 88.817 31.7271
18.472980 88.845 31.6756
18.606844 88.873 31.6250
18.741676 88.901 31.5753
18.877487 88.929 31.5270
19.014280 88.957 31.4802
19.152065 88.985 31.4361
19.290850 89.013 31.3960
19.430639 89.041 31.3600
19.571442 89.069 31.3287
19.713264 89.099 31.3020
19.856115 89.130 31.2817
20.000000 89.163 31.2640
20.144928 89.199 31.2480
20.290907 89.237 31.2270
20.437943 89.279 31.1950
20.586044 89.323 31.1490
20.735220 89.368 31.0856
20.885475 89.415 31.0011
21.036821 89.463 30.8900
21.189262 89.510 30.7552
21.342808 89.554 30.5956
21.497467 89.595 30.4182
21.653246 89.632 30.2275
21.810154 89.664 30.0303
21.968201 89.692 29.8329
22.127390 89.716 29.6412
22.287735 89.737 29.4625
22.449242 89.755 29.2981
22.611917 89.772 29.1519
22.775772 89.789 29.0231
22.940815 89.805 28.9135
23.107054 89.822 28.8191
23.274498 89.841 28.7380
23.443153 89.862 28.6661
23.613033 89.885 28.5996
23.784142 89.910 28.5361
23.956491 89.937 28.4728
24.130091 89.965 28.4071
24.304947 89.996 28.3353
24.481071 90.028 28.2571
24.658470 90.060 28.1715
24.837156 90.093 28.0771
25.017136 90.127 27.9723
25.198421 90.161 27.8571
25.381020 90.194 27.7299
25.564941 90.227 27.5941
25.750195 90.258 27.4529
25.936790 90.287 27.3062
26.124741 90.316 27.1541
26.314051 90.344 26.9992
26.504732 90.369 26.8425
26.696796 90.392 26.6882
26.890253 90.414 26.5416
27.085112 90.435 26.4012
27.281382 90.457 26.2671
27.479073 90.478 26.1392
27.678198 90.498 26.0169
27.878765 90.519 25.9012
28.080786 90.540 25.7938
28.284271 90.562 25.6911
28.489231 90.586 25.5905
28.695675 90.611 25.4911
28.903616 90.636 25.3916
29.113064 90.662 25.2911
29.324028 90.689 25.1894
29.536524 90.717 25.0841
29.750557 90.746 24.9730
29.966141 90.776 24.8561
30.183289 90.806 24.7328
30.402010 90.836 24.6032
30.622314 90.866 24.4670
30.844217 90.896 24.3242
31.067726 90.926 24.1739
31.292856 90.955 24.0172
31.519617 90.983 23.8544
31.748020 91.011 23.6872
31.978081 91.037 23.5174
32.209808 91.062 23.3462
32.443211 91.086 23.1752
32.678310 91.110 23.0052
32.915108 91.132 22.8376
33.153625 91.154 22.6732
33.393871 91.175 22.5139
33.635857 91.197 22.3572
33.879597 91.220 22.2015
34.125103 91.243 22.0462
34.372387 91.266 21.8907
34.621464 91.290 21.7332
34.872345 91.314 21.5718
35.125042 91.339 21.4062
35.379574 91.363 21.2343
35.635948 91.386 21.0592
35.894180 91.408 20.8834
36.154285 91.429 20.7063
36.416275 91.451 20.5278
36.680161 91.472 20.3493
36.945961 91.492 20.1713
37.213688 91.511 19.9953
37.483353 91.530 19.8234
37.754974 91.549 19.6543
38.028561 91.568 19.4864
38.304131 91.588 19.3212
38.581699 91.607 19.1601
38.861279 91.627 19.0012
39.142883 91.648 18.8444
39.426529 91.671 18.6862
39.712231 91.694 18.5237
40.000000 91.719 18.3563
40.289856 91.745 18.1835
40.581814 91.771 18.0023
40.875885 91.798 17.8092
41.172089 91.826 17.6043
41.470440 91.853 17.3857
41.770950 91.879 17.1564
42.073643 91.903 16.9191
42.378525 91.927 16.6724
42.685616 91.951 16.4152
42.994934 91.973 16.1494
43.306492 91.993 15.8751
43.620308 92.010 15.5954
43.936401 92.025 15.3134
44.254780 92.038 15.0295
44.575470 92.050 14.7446
44.898483 92.060 14.4605
45.223835 92.067 14.1779
45.551544 92.072 13.9004
45.881630 92.075 13.6323
46.214108 92.077 13.3724
46.548996 92.078 13.1213
46.886307 92.079 12.8784
47.226067 92.079 12.6434
47.568283 92.079 12.4154
47.912983 92.079 12.1937
48.260181 92.079 11.9774
48.609894 92.079 11.7649
48.962143 92.079 11.5563
49.316940 92.079 11.3512
49.674313 92.079 11.1493
50.034271 92.079 10.9501
50.396843 92.079 10.7533
50.762039 92.079 10.5584
51.129883 92.079 10.3653
51.500389 92.079 10.1736
51.873581 92.079 9.9833
52.249481 92.079 9.7944
52.628101 92.079 9.6063
53.009464 92.079 9.4188
53.393593 92.079 9.2313
53.780506 92.079 9.0432
54.170223 92.079 8.8543
54.562763 92.079 8.6642
54.958145 92.078 8.4723
55.356396 92.077 8.2775
55.757530 92.076 8.0803
56.161572 92.075 7.8804
56.568542 92.072 7.6793
56.978462 92.067 7.4781
57.391350 92.061 7.2784
57.807232 92.054 7.0817
58.226128 92.045 6.8893
58.648056 92.035 6.7019
59.073048 92.024 6.5223
59.501114 92.011 6.3538
59.932281 91.997 6.1963
60.366577 91.984 6.0509
60.804020 91.970 5.9172
61.244629 91.956 5.7959
61.688435 91.943 5.6852
62.135452 91.932 5.5843
62.585712 91.922 5.4902
63.039234 91.913 5.3997
63.496040 91.905 5.3121
63.956161 91.898 5.2257
64.419617 91.891 5.1402
64.886421 91.886 5.0542
65.356621 91.880 4.9701
65.830215 91.873 4.8898
66.307251 91.866 4.8141
66.787743 91.860 4.7448
67.271713 91.854 4.6821
67.759193 91.849 4.6269
68.250206 91.844 4.5791
68.744774 91.841 4.5403
69.242928 91.840 4.5061
69.744690 91.841 4.4736
70.250084 91.845 4.4401
70.759148 91.850 4.4011
71.271896 91.857 4.3581
71.788361 91.864 4.3114
72.308571 91.873 4.2601
72.832550 91.883 4.2032
73.360321 91.893 4.1411
73.891922 91.903 4.0726
74.427376 91.914 4.0011
74.966705 91.924 3.9296
75.509949 91.934 3.8581
76.057121 91.946 3.7895
76.608261 91.960 3.7191
77.163399 91.976 3.6433
77.722557 91.993 3.5622
78.285767 92.010 3.4757
78.853058 92.029 3.3812
79.424461 92.051 3.2768
80.000000 92.075 3.1592
80.579712 92.099 3.0240
81.163628 92.124 2.8733
81.751770 92.148 2.7078
82.344177 92.172 2.5274
82.940880 92.196 2.3320
83.541901 92.219 2.1224
84.147285 92.240 1.8977
84.757050 92.260 1.6635
85.371231 92.277 1.4254
85.989868 92.293 1.1825
86.612984 92.309 0.9358
87.240616 92.325 0.6845
87.872803 92.339 0.4280
88.509560 92.353 0.1675
89.150940 92.367 -0.0941
89.796967 92.381 -0.3614
90.447670 92.396 -0.6370
91.103088 92.411 -0.9234
91.763260 92.427 -1.2238
92.428215 92.442 -1.5383
93.097992 92.456 -1.8682
93.772614 92.469 -2.2133
94.452133 92.481 -2.5739
95.136566 92.491 -2.9492
95.825966 92.499 -3.3386
96.520363 92.504 -3.7411
97.219788 92.507 -4.1555
97.924286 92.508 -4.5821
98.633881 92.506 -5.0214
99.348625 92.501 -5.4711
100.068542 92.492 -5.9301
100.793686 92.478 -6.3948
101.524078 92.460 -6.8623
102.259766 92.438 -7.3289
103.000778 92.411 -7.7915
103.747162 92.380 -8.2451
104.498962 92.344 -8.6845
105.256203 92.304 -9.1072
106.018929 92.261 -9.5085
106.787186 92.216 -9.8903
107.561012 92.170 -10.2523
108.340446 92.123 -10.5964
109.125526 92.076 -10.9235
109.916290 92.028 -11.2364
110.712791 91.981 -11.5378
111.515060 91.933 -11.8294
112.323143 91.885 -12.1137
113.137085 91.837 -12.3904
113.956924 91.788 -12.6597
114.782700 91.739 -12.9223
115.614464 91.690 -13.1786
116.452255 91.640 -13.4295
117.296112 91.590 -13.6764
118.146095 91.539 -13.9185
119.002228 91.487 -14.1549
119.864563 91.434 -14.3874
120.733154 91.382 -14.6169
121.608040 91.330 -14.8445
122.489258 91.276 -15.0720
123.376869 91.220 -15.2975
124.270905 91.163 -15.5195
125.171425 91.104 -15.7386
126.078468 91.044 -15.9553
126.992081 90.982 -16.1675
127.912323 90.917 -16.3749
128.839233 90.849 -16.5736
129.772842 90.779 -16.7603
130.713242 90.706 -16.9327
131.660431 90.631 -17.0886
132.614502 90.553 -17.2246
133.575485 90.473 -17.3371
134.543427 90.390 -17.4249
135.518387 90.307 -17.4850
136.500412 90.224 -17.5190
137.489548 90.142 -17.5263
138.485855 90.060 -17.5091
139.489380 89.980 -17.4677
140.500168 89.902 -17.4072
141.518295 89.827 -17.3308
142.543793 89.754 -17.2442
143.576721 89.685 -17.1535
144.617142 89.617 -17.0602
145.665100 89.551 -16.9685
146.720642 89.485 -16.8773
147.783844 89.420 -16.7874
148.854752 89.354 -16.6972
149.933411 89.287 -16.6065
151.019897 89.218 -16.5112
152.114243 89.148 -16.4090
153.216522 89.075 -16.2953
154.326797 89.000 -16.1656
155.445114 88.924 -16.0184
156.571533 88.848 -15.8507
157.706116 88.771 -15.6625
158.848923 88.694 -15.4529
160.000000 88.616 -15.2216
161.159424 88.539 -14.9676
162.327255 88.463 -14.6916
163.503540 88.388 -14.3938
164.688354 88.314 -14.0747
165.881760 88.242 -13.7347
167.083801 88.171 -13.3740
168.294571 88.102 -12.9931
169.514099 88.035 -12.5920
170.742462 87.971 -12.1704
171.979736 87.909 -11.7302
173.225967 87.851 -11.2724
174.481232 87.795 -10.7991
175.745605 87.743 -10.3125
177.019119 87.694 -9.8142
178.301880 87.649 -9.3059
179.593933 87.607 -8.7893
180.895340 87.569 -8.2661
182.206177 87.535 -7.7383
183.526520 87.505 -7.2079
184.856430 87.477 -6.6762
186.195984 87.452 -6.1458
187.545227 87.430 -5.6143
188.904266 87.410 -5.0796
190.273132 87.393 -4.5433
191.651932 87.380 -4.0060
193.040726 87.369 -3.4685
194.439575 87.361 -2.9315
195.848572 87.356 -2.3955
197.267761 87.354 -1.8607
198.697250 87.355 -1.3293
200.137085 87.360 -0.8032
201.587372 87.369 -0.2832
203.048157 87.379 0.2294
204.519531 87.392 0.7335
206.001556 87.409 1.2284
207.494324 87.429 1.7118
208.997925 87.451 2.1808
210.512405 87.475 2.6369
212.037857 87.500 3.0813
213.574371 87.528 3.5130
215.122025 87.558 3.9312
216.680893 87.589 4.3359
218.251053 87.621 4.7268
219.832581 87.655 5.1039
221.425583 87.690 5.4676
223.030121 87.726 5.8171
224.646286 87.763 6.1516
226.274170 87.800 6.4722
227.913849 87.838 6.7797
229.565399 87.876 7.0743
231.228928 87.915 7.3564
232.904510 87.954 7.6262
234.592224 87.993 7.8835
236.292191 88.032 8.1294
238.004456 88.071 8.3644
239.729126 88.110 8.5894
241.466309 88.148 8.8055
243.216080 88.187 9.0125
244.978516 88.226 9.2106
246.753738 88.265 9.3995
248.541809 88.304 9.5786
250.342850 88.343 9.7475
252.156937 88.382 9.9056
253.984161 88.420 10.0536
255.824646 88.458 10.1925
257.678467 88.496 10.3217
259.545685 88.533 10.4405
261.426483 88.570 10.5497
263.320862 88.605 10.6497
265.229004 88.640 10.7418
267.150970 88.673 10.8270
269.086853 88.705 10.9068
271.036774 88.735 10.9823
273.000824 88.764 11.0558
274.979095 88.791 11.1294
276.971710 88.818 11.2038
278.978760 88.844 11.2805
281.000336 88.869 11.3588
283.036591 88.894 11.4383
285.087585 88.919 11.5188
287.153442 88.944 11.6002
289.234283 88.969 11.6808
291.330200 88.995 11.7587
293.441284 89.021 11.8338
295.567688 89.046 11.9048
297.709503 89.071 11.9728
299.866821 89.095 12.0388
302.039795 89.119 12.1028
304.228485 89.143 12.1646
306.433044 89.166 12.2258
308.653595 89.187 12.2873
310.890228 89.208 12.3508
313.143066 89.228 12.4197
315.412231 89.249 12.4908
317.697845 89.271 12.5616
320.000000 89.292 12.6328
322.318848 89.312 12.7032
324.654510 89.332 12.7758
327.007080 89.352 12.8537
329.376709 89.372 12.9347
331.763519 89.393 13.0166
334.167603 89.413 13.1017
336.589142 89.432 13.1913
339.028198 89.452 13.2867
341.484924 89.473 13.3905
343.959473 89.495 13.4997
346.451935 89.519 13.6127
348.962463 89.545 13.7277
351.491211 89.572 13.8431
354.038239 89.601 13.9557
356.603760 89.633 14.0629
359.187866 89.668 14.1617
361.790680 89.703 14.2483
364.412354 89.740 14.3228
367.053040 89.778 14.3842
369.712860 89.816 14.4319
372.391968 89.855 14.4647
375.090454 89.894 14.4830
377.808533 89.932 14.4861
380.546265 89.969 14.4760
383.303864 90.005 14.4536
386.081451 90.039 14.4211
388.879150 90.072 14.3812
391.697144 90.104 14.3342
394.535522 90.135 14.2810
397.394501 90.164 14.2222
400.274170 90.192 14.1575
403.174744 90.218 14.0892
406.096313 90.242 14.0200
409.039062 90.265 13.9492
412.003113 90.287 13.8773
414.988647 90.309 13.8042
417.995850 90.329 13.7298
421.024811 90.347 13.6552
424.075714 90.364 13.5815
427.148743 90.379 13.5092
430.244049 90.393 13.4388
433.361786 90.406 13.3722
436.502106 90.417 13.3108
439.665161 90.426 13.2562
442.851166 90.434 13.2103
446.060242 90.442 13.1731
449.292572 90.449 13.1454
452.548340 90.455 13.1270
455.827698 90.461 13.1183
459.130798 90.467 13.1180
462.457855 90.474 13.1250
465.809021 90.481 13.1399
469.184448 90.488 13.1625
472.584381 90.494 13.1939
476.008911 90.500 13.2348
479.458252 90.507 13.2858
482.932617 90.514 13.3471
486.432159 90.522 13.4207
489.957031 90.530 13.5094
493.507477 90.540 13.6117
497.083618 90.553 13.7284
500.685699 90.568 13.8556
504.313873 90.586 13.9912
507.968323 90.609 14.1305
511.649292 90.636 14.2696
515.356934 90.668 14.4036
519.091370 90.702 14.5268
522.852966 90.740 14.6377
526.641724 90.780 14.7335
530.458008 90.824 14.8118
534.301941 90.870 14.8694
538.173706 90.918 14.9059
542.073547 90.966 14.9192
546.001648 91.015 14.9111
549.958191 91.063 14.8826
553.943420 91.111 14.8342
557.957520 91.159 14.7657
562.000671 91.206 14.6793
566.073181 91.251 14.5764
570.175171 91.295 14.4594
574.306885 91.337 14.3316
578.468567 91.379 14.1925
582.660400 91.419 14.0425
586.882568 91.458 13.8816
591.135376 91.496 13.7091
595.419006 91.533 13.5266
599.733643 91.568 13.3351
604.079590 91.601 13.1357
608.456970 91.633 12.9302
612.866089 91.664 12.7177
617.307190 91.694 12.4982
621.780457 91.722 12.2718
626.286133 91.749 12.0382
630.824463 91.774 11.7988
635.395691 91.797 11.5552
640.000000 91.820 11.3059
644.637695 91.842 11.0500
649.309021 91.863 10.7869
654.014160 91.882 10.5151
658.753418 91.898 10.2369
663.527039 91.912 9.9537
668.335205 91.923 9.6680
673.178284 91.932 9.3830
678.056396 91.939 9.0980
682.969849 91.945 8.8128
687.918945 91.949 8.5280
692.903870 91.951 8.2444
697.924927 91.952 7.9610
702.982422 91.952 7.6781
708.076477 91.952 7.3920
713.207520 91.951 7.0989
718.375732 91.948 6.7991
723.581360 91.943 6.4914
728.824707 91.936 6.1761
734.106079 91.926 5.8522
739.425720 91.912 5.5222
744.783936 91.895 5.1863
750.180908 91.872 4.8502
755.617065 91.843 4.5169
761.092529 91.809 4.1941
766.607727 91.769 3.8888
772.162903 91.723 3.6070
777.758301 91.672 3.3547
783.394287 91.617 3.1387
789.071045 91.557 2.9675
794.789001 91.495 2.8414
800.548340 91.434 2.7649
806.349487 91.373 2.7330
812.192627 91.316 2.7445
818.078125 91.262 2.7918
824.006226 91.213 2.8699
829.977295 91.170 2.9696
835.991699 91.133 3.0829
842.049622 91.102 3.2006
848.151428 91.077 3.3117
854.297485 91.056 3.4136
860.488098 91.038 3.4997
866.723572 91.021 3.5708
873.004211 91.005 3.6250
879.330322 90.990 3.6639
885.702332 90.974 3.6866
892.120483 90.957 3.6980
898.585144 90.937 3.7006
905.096680 90.914 3.7010
911.655396 90.889 3.7059
918.261597 90.861 3.7179
924.915710 90.832 3.7421
931.618042 90.801 3.7778
938.368896 90.770 3.8269
945.168762 90.740 3.8868
952.017822 90.711 3.9560
958.916504 90.682 4.0327
965.865234 90.654 4.1160
972.864319 90.626 4.2017
979.914062 90.601 4.2860
987.014954 90.576 4.3667
994.167236 90.551 4.4388
1001.371399 90.524 4.5068
1008.627747 90.494 4.5724
