* Measurement data measured by REW V5.20.13
* Source: C:\Users\kurin\Desktop\Targets and Curves\Resolve\Img\Lecram\DCA_Aeon_2_Noire_5128_SPL.txt
* Format: Comma/Tab/Space delimited data
* Dated: Aug 15, 2023 3:26:46 PM
* REW Settings:
*  C-weighting compensation: Off
*  Target level: 75.0 dB
* Note: ; Measurement imported from C:\Users\kurin\Desktop\Targets and Curves\Resolve\Img\Lecram\DCA_Aeon_2_Noire_5128_SPL.txt Format: Comma/Tab/Space delimited data 623 values loaded, 5 Hz to 39,792 Hz log spaced 
* Measurement: DCA_Aeon_2_Noire_5128_SP
* Smoothing: 1/48 octave
* Frequency Step: 1/96 octave
* Start Frequency: 5.000 Hz
*
* Freq(Hz) SPL(dB) Phase(degrees)
5.000000 85.527 5.2210
5.036232 85.529 5.2172
5.072727 85.531 5.2130
5.109486 85.533 5.2079
5.146511 85.536 5.2020
5.183805 85.539 5.1953
5.221369 85.543 5.1880
5.259205 85.547 5.1806
5.297316 85.551 5.1730
5.335702 85.555 5.1651
5.374367 85.560 5.1570
5.413311 85.565 5.1486
5.452538 85.569 5.1400
5.492050 85.573 5.1315
5.531847 85.577 5.1230
5.571934 85.581 5.1146
5.612310 85.586 5.1060
5.652979 85.590 5.0970
5.693943 85.595 5.0880
5.735204 85.600 5.0795
5.776763 85.604 5.0710
5.818624 85.608 5.0621
5.860788 85.612 5.0530
5.903258 85.616 5.0435
5.946035 85.621 5.0340
5.989123 85.625 5.0250
6.032523 85.630 5.0160
6.076237 85.634 5.0066
6.120268 85.639 4.9970
6.164618 85.644 4.9875
6.209289 85.648 4.9780
6.254284 85.652 4.9686
6.299605 85.656 4.9590
6.345255 85.660 4.9491
6.391235 85.665 4.9390
6.437549 85.670 4.9290
6.484198 85.674 4.9190
6.531185 85.679 4.9090
6.578513 85.683 4.8990
6.626183 85.687 4.8891
6.674199 85.691 4.8790
6.722563 85.695 4.8686
6.771278 85.700 4.8580
6.820345 85.704 4.8475
6.869768 85.709 4.8370
6.919549 85.714 4.8266
6.969691 85.718 4.8160
7.020196 85.722 4.8051
7.071068 85.726 4.7940
7.122308 85.730 4.7830
7.173919 85.735 4.7720
7.225904 85.740 4.7611
7.278266 85.744 4.7500
7.331007 85.748 4.7386
7.384131 85.753 4.7270
7.437639 85.758 4.7155
7.491535 85.762 4.7040
7.545822 85.766 4.6926
7.600502 85.770 4.6810
7.655579 85.774 4.6691
7.711054 85.779 4.6570
7.766932 85.784 4.6450
7.823214 85.788 4.6330
7.879904 85.793 4.6211
7.937005 85.797 4.6090
7.994520 85.801 4.5966
8.052452 85.805 4.5840
8.110803 85.809 4.5715
8.169578 85.814 4.5590
8.228777 85.818 4.5466
8.288406 85.823 4.5340
8.348468 85.828 4.5211
8.408964 85.832 4.5080
8.469899 85.836 4.4951
8.531276 85.840 4.4820
8.593097 85.844 4.4686
8.655366 85.849 4.4550
8.718086 85.854 4.4415
8.781260 85.858 4.4280
8.844893 85.862 4.4146
8.908987 85.867 4.4010
8.973545 85.872 4.3871
9.038571 85.876 4.3730
9.104069 85.880 4.3591
9.170040 85.884 4.3450
9.236490 85.888 4.3306
9.303422 85.893 4.3160
9.370838 85.897 4.3016
9.438744 85.902 4.2870
9.507140 85.907 4.2721
9.576033 85.911 4.2570
9.645425 85.915 4.2420
9.715320 85.919 4.2270
9.785721 85.923 4.2121
9.856632 85.928 4.1970
9.928058 85.932 4.1816
10.000000 85.937 4.1660
10.072464 85.942 4.1506
10.145453 85.946 4.1350
10.218971 85.950 4.1191
10.293022 85.954 4.1030
10.367610 85.958 4.0871
10.442738 85.963 4.0710
10.518411 85.967 4.0546
10.594631 85.972 4.0380
10.671404 85.977 4.0210
10.748734 85.981 4.0040
10.826623 85.986 3.9876
10.905077 85.990 3.9710
10.984100 85.994 3.9536
11.063695 85.998 3.9360
11.143867 86.002 3.9185
11.224621 86.007 3.9010
11.305959 86.011 3.8836
11.387886 86.016 3.8660
11.470407 86.021 3.8481
11.553527 86.025 3.8300
11.637249 86.029 3.8121
11.721577 86.033 3.7940
11.806517 86.037 3.7751
11.892071 86.042 3.7560
11.978246 86.047 3.7375
12.065045 86.051 3.7190
12.152473 86.056 3.7001
12.240536 86.060 3.6810
12.329235 86.064 3.6616
12.418578 86.068 3.6420
12.508568 86.072 3.6221
12.599211 86.077 3.6020
12.690510 86.081 3.5820
12.782471 86.086 3.5620
12.875097 86.090 3.5421
12.968395 86.095 3.5220
13.062370 86.100 3.5016
13.157025 86.104 3.4810
13.252366 86.108 3.4601
13.348398 86.112 3.4390
13.445127 86.116 3.4176
13.542556 86.121 3.3960
13.640691 86.125 3.3746
13.739536 86.130 3.3530
13.839099 86.135 3.3311
13.939383 86.139 3.3090
14.040393 86.143 3.2866
14.142136 86.147 3.2640
14.244616 86.151 3.2416
14.347837 86.156 3.2190
14.451808 86.160 3.1961
14.556532 86.165 3.1730
14.662014 86.170 3.1496
14.768262 86.174 3.1260
14.875278 86.178 3.1026
14.983070 86.182 3.0790
15.091644 86.186 3.0552
15.201005 86.191 3.0310
15.311157 86.195 3.0061
15.422109 86.200 2.9810
15.533863 86.204 2.9566
15.646428 86.209 2.9320
15.759809 86.214 2.9067
15.874010 86.218 2.8810
15.989040 86.222 2.8551
16.104904 86.226 2.8290
16.221605 86.230 2.8031
16.339155 86.235 2.7770
16.457554 86.239 2.7506
16.576813 86.244 2.7240
16.696936 86.249 2.6976
16.817928 86.253 2.6710
16.939798 86.257 2.6437
17.062551 86.261 2.6160
17.186193 86.265 2.5886
17.310732 86.270 2.5610
17.436172 86.274 2.5331
17.562521 86.279 2.5050
17.689787 86.284 2.4766
17.817974 86.288 2.4480
17.947090 86.292 2.4196
18.077143 86.296 2.3910
18.208138 86.300 2.3621
18.340080 86.305 2.3330
18.472980 86.310 2.3035
18.606844 86.314 2.2740
18.741676 86.318 2.2449
18.877487 86.323 2.2160
19.014280 86.327 2.1875
19.152065 86.332 2.1590
19.290850 86.336 2.1306
19.430639 86.341 2.1020
19.571442 86.346 2.0733
19.713264 86.351 2.0440
19.856115 86.356 2.0138
20.000000 86.362 1.9820
20.144928 86.368 1.9473
20.290907 86.373 1.9110
20.437943 86.378 1.8742
20.586044 86.383 1.8370
20.735220 86.388 1.7997
20.885475 86.392 1.7630
21.036821 86.396 1.7280
21.189262 86.400 1.6940
21.342808 86.405 1.6619
21.497467 86.411 1.6290
21.653246 86.417 1.5934
21.810154 86.423 1.5551
21.968201 86.429 1.5132
22.127390 86.435 1.4681
22.287735 86.441 1.4195
22.449242 86.447 1.3680
22.611917 86.451 1.3131
22.775772 86.455 1.2581
22.940815 86.457 1.2060
23.107054 86.459 1.1581
23.274498 86.461 1.1167
23.443153 86.462 1.0810
23.613033 86.463 1.0518
23.784142 86.465 1.0270
23.956491 86.469 1.0060
24.130091 86.474 0.9860
24.304947 86.480 0.9642
24.481071 86.486 0.9410
24.658470 86.492 0.9157
24.837156 86.499 0.8890
25.017136 86.506 0.8620
25.198421 86.514 0.8330
25.381020 86.523 0.8004
25.564941 86.533 0.7650
25.750195 86.542 0.7274
25.936790 86.551 0.6871
26.124741 86.561 0.6449
26.314051 86.573 0.5981
26.504732 86.586 0.5435
26.696796 86.599 0.4821
26.890253 86.611 0.4136
27.085112 86.622 0.3391
27.281382 86.634 0.2600
27.479073 86.647 0.1741
27.678198 86.660 0.0794
27.878765 86.672 -0.0229
28.080786 86.684 -0.1312
28.284271 86.695 -0.2478
28.489231 86.707 -0.3743
28.695675 86.718 -0.5118
28.903616 86.727 -0.6637
29.113064 86.734 -0.8248
29.324028 86.738 -0.9918
29.536524 86.740 -1.1618
29.750557 86.739 -1.3320
29.966141 86.735 -1.4988
30.183289 86.728 -1.6593
30.402010 86.718 -1.8088
30.622314 86.706 -1.9415
30.844217 86.693 -2.0579
31.067726 86.679 -2.1560
31.292856 86.666 -2.2369
31.519617 86.653 -2.2992
31.748020 86.642 -2.3479
31.978081 86.634 -2.3859
32.209808 86.629 -2.4190
32.443211 86.626 -2.4536
32.678310 86.625 -2.4909
32.915108 86.625 -2.5337
33.153625 86.627 -2.5839
33.393871 86.631 -2.6447
33.635857 86.635 -2.7159
33.879597 86.638 -2.8001
34.125103 86.639 -2.8919
34.372387 86.639 -2.9875
34.621464 86.637 -3.0839
34.872345 86.634 -3.1764
35.125042 86.631 -3.2659
35.379574 86.627 -3.3508
35.635948 86.624 -3.4339
35.894180 86.622 -3.5180
36.154285 86.619 -3.6019
36.416275 86.615 -3.6855
36.680161 86.611 -3.7679
36.945961 86.607 -3.8480
37.213688 86.603 -3.9259
37.483353 86.599 -4.0018
37.754974 86.595 -4.0739
38.028561 86.591 -4.1392
38.304131 86.588 -4.2019
38.581699 86.588 -4.2630
38.861279 86.590 -4.3289
39.142883 86.594 -4.4054
39.426529 86.600 -4.4949
39.712231 86.606 -4.6003
40.000000 86.612 -4.7248
40.289856 86.619 -4.8743
40.581814 86.623 -5.0427
40.875885 86.622 -5.2300
41.172089 86.617 -5.4247
41.470440 86.606 -5.6182
41.770950 86.590 -5.8027
42.073643 86.570 -5.9679
42.378525 86.547 -6.1128
42.685616 86.524 -6.2319
42.994934 86.500 -6.3279
43.306492 86.477 -6.3997
43.620308 86.455 -6.4529
43.936401 86.437 -6.4896
44.254780 86.423 -6.5190
44.575470 86.413 -6.5494
44.898483 86.406 -6.5859
45.223835 86.401 -6.6362
45.551544 86.398 -6.7009
45.881630 86.396 -6.7841
46.214108 86.393 -6.8838
46.548996 86.388 -7.0011
46.886307 86.382 -7.1318
47.226067 86.373 -7.2730
47.568283 86.362 -7.4217
47.912983 86.347 -7.5763
48.260181 86.329 -7.7298
48.609894 86.307 -7.8755
48.962143 86.281 -8.0108
49.316940 86.253 -8.1309
49.674313 86.223 -8.2348
50.034271 86.192 -8.3205
50.396843 86.160 -8.3869
50.762039 86.127 -8.4311
51.129883 86.095 -8.4570
51.500389 86.066 -8.4661
51.873581 86.038 -8.4630
52.249481 86.012 -8.4518
52.628101 85.987 -8.4350
53.009464 85.964 -8.4160
53.393593 85.943 -8.3960
53.780506 85.923 -8.3779
54.170223 85.903 -8.3610
54.562763 85.883 -8.3468
54.958145 85.863 -8.3320
55.356396 85.842 -8.3145
55.757530 85.821 -8.2930
56.161572 85.800 -8.2659
56.568542 85.779 -8.2331
56.978462 85.757 -8.1941
57.391350 85.736 -8.1491
57.807232 85.716 -8.0973
58.226128 85.696 -8.0411
58.648056 85.677 -7.9830
59.073048 85.658 -7.9211
59.501114 85.639 -7.8549
59.932281 85.619 -7.7821
60.366577 85.599 -7.7005
60.804020 85.580 -7.6092
61.244629 85.561 -7.5066
61.688435 85.542 -7.3922
62.135452 85.525 -7.2644
62.585712 85.509 -7.1252
63.039234 85.496 -6.9749
63.496040 85.485 -6.8173
63.956161 85.477 -6.6558
64.419617 85.472 -6.4923
64.886421 85.469 -6.3291
65.356621 85.469 -6.1673
65.830215 85.471 -6.0084
66.307251 85.475 -5.8533
66.787743 85.481 -5.7042
67.271713 85.489 -5.5583
67.759193 85.497 -5.4133
68.250206 85.507 -5.2703
68.744774 85.520 -5.1278
69.242928 85.535 -4.9902
69.744690 85.554 -4.8609
70.250084 85.576 -4.7422
70.759148 85.601 -4.6362
71.271896 85.628 -4.5471
71.788361 85.658 -4.4790
72.308571 85.690 -4.4341
72.832550 85.723 -4.4159
73.360321 85.756 -4.4240
73.891922 85.789 -4.4604
74.427376 85.821 -4.5209
74.966705 85.850 -4.6028
75.509949 85.877 -4.7028
76.057121 85.902 -4.8173
76.608261 85.924 -4.9447
77.163399 85.944 -5.0833
77.722557 85.962 -5.2297
78.285767 85.976 -5.3806
78.853058 85.988 -5.5347
79.424461 85.998 -5.6898
80.000000 86.007 -5.8447
80.579712 86.013 -5.9980
81.163628 86.018 -6.1477
81.751770 86.021 -6.2915
82.344177 86.022 -6.4287
82.940880 86.023 -6.5576
83.541901 86.023 -6.6798
84.147285 86.024 -6.7960
84.757050 86.025 -6.9068
85.371231 86.026 -7.0121
85.989868 86.028 -7.1148
86.612984 86.032 -7.2166
87.240616 86.037 -7.3208
87.872803 86.043 -7.4315
88.509560 86.049 -7.5478
89.150940 86.055 -7.6702
89.796967 86.061 -7.7987
90.447670 86.067 -7.9334
91.103088 86.073 -8.0737
91.763260 86.078 -8.2199
92.428215 86.082 -8.3697
93.097992 86.085 -8.5203
93.772614 86.089 -8.6727
94.452133 86.093 -8.8256
95.136566 86.098 -8.9827
95.825966 86.104 -9.1472
96.520363 86.110 -9.3196
97.219788 86.116 -9.5013
97.924286 86.122 -9.6926
98.633881 86.128 -9.8941
99.348625 86.134 -10.1066
100.068542 86.139 -10.3318
100.793686 86.143 -10.5674
101.524078 86.145 -10.8114
102.259766 86.146 -11.0644
103.000778 86.147 -11.3256
103.747162 86.147 -11.5965
104.498962 86.146 -11.8780
105.256203 86.144 -12.1704
106.018929 86.140 -12.4743
106.787186 86.135 -12.7894
107.561012 86.128 -13.1159
108.340446 86.119 -13.4534
109.125526 86.108 -13.8025
109.916290 86.094 -14.1613
110.712791 86.076 -14.5289
111.515060 86.055 -14.9032
112.323143 86.032 -15.2824
113.137085 86.005 -15.6652
113.956924 85.974 -16.0512
114.782700 85.939 -16.4360
115.614464 85.900 -16.8160
116.452255 85.856 -17.1883
117.296112 85.809 -17.5499
118.146095 85.759 -17.8983
119.002228 85.705 -18.2303
119.864563 85.649 -18.5452
120.733154 85.592 -18.8394
121.608040 85.533 -19.1174
122.489258 85.475 -19.3810
123.376869 85.417 -19.6354
124.270905 85.360 -19.8852
125.171425 85.303 -20.1335
126.078468 85.246 -20.3845
126.992081 85.189 -20.6404
127.912323 85.131 -20.9060
128.839233 85.070 -21.1784
129.772842 85.005 -21.4587
130.713242 84.935 -21.7404
131.660431 84.861 -22.0179
132.614502 84.783 -22.2892
133.575485 84.701 -22.5521
134.543427 84.614 -22.8015
135.518387 84.521 -23.0327
136.500412 84.424 -23.2426
137.489548 84.324 -23.4271
138.485855 84.219 -23.5856
139.489380 84.112 -23.7185
140.500168 84.000 -23.8198
141.518295 83.885 -23.8839
142.543793 83.766 -23.9100
143.576721 83.647 -23.8946
144.617142 83.526 -23.8402
145.665100 83.406 -23.7481
146.720642 83.285 -23.6184
147.783844 83.165 -23.4501
148.854752 83.046 -23.2476
149.933411 82.930 -23.0143
151.019897 82.815 -22.7517
152.114243 82.701 -22.4628
153.216522 82.587 -22.1459
154.326797 82.476 -21.8005
155.445114 82.365 -21.4269
156.571533 82.256 -21.0263
157.706116 82.148 -20.5960
158.848923 82.040 -20.1343
160.000000 81.934 -19.6402
161.159424 81.831 -19.1112
162.327255 81.731 -18.5503
163.503540 81.634 -17.9605
164.688354 81.540 -17.3403
165.881760 81.450 -16.6883
167.083801 81.363 -16.0068
168.294571 81.282 -15.2964
169.514099 81.205 -14.5608
170.742462 81.135 -13.8036
171.979736 81.070 -13.0271
173.225967 81.012 -12.2338
174.481232 80.959 -11.4269
175.745605 80.912 -10.6102
177.019119 80.871 -9.7850
178.301880 80.836 -8.9532
179.593933 80.807 -8.1172
180.895340 80.784 -7.2794
182.206177 80.767 -6.4410
183.526520 80.755 -5.6027
184.856430 80.749 -4.7679
186.195984 80.750 -3.9377
187.545227 80.758 -3.1189
188.904266 80.773 -2.3184
190.273132 80.793 -1.5369
191.651932 80.817 -0.7781
193.040726 80.844 -0.0400
194.439575 80.874 0.6785
195.848572 80.908 1.3760
197.267761 80.946 2.0508
198.697250 80.986 2.7054
200.137085 81.027 3.3415
201.587372 81.071 3.9596
203.048157 81.118 4.5623
204.519531 81.168 5.1453
206.001556 81.221 5.7054
207.494324 81.277 6.2407
208.997925 81.335 6.7476
210.512405 81.394 7.2279
212.037857 81.453 7.6813
213.574371 81.513 8.1100
215.122025 81.572 8.5146
216.680893 81.630 8.8990
218.251053 81.687 9.2665
219.832581 81.744 9.6190
221.425583 81.801 9.9595
223.030121 81.858 10.2872
224.646286 81.915 10.6028
226.274170 81.972 10.9052
227.913849 82.030 11.1936
229.565399 82.088 11.4673
231.228928 82.145 11.7251
232.904510 82.203 11.9683
234.592224 82.260 12.1977
236.292191 82.317 12.4134
238.004456 82.373 12.6160
239.729126 82.429 12.8055
241.466309 82.483 12.9819
243.216080 82.537 13.1466
244.978516 82.590 13.3009
246.753738 82.643 13.4446
248.541809 82.694 13.5777
250.342850 82.745 13.7007
252.156937 82.794 13.8131
253.984161 82.842 13.9177
255.824646 82.888 14.0161
257.678467 82.932 14.1108
259.545685 82.974 14.2048
261.426483 83.016 14.2978
263.320862 83.058 14.3903
265.229004 83.099 14.4817
267.150970 83.140 14.5716
269.086853 83.180 14.6607
271.036774 83.220 14.7504
273.000824 83.260 14.8387
274.979095 83.301 14.9250
276.971710 83.343 15.0068
278.978760 83.384 15.0807
281.000336 83.426 15.1488
283.036591 83.467 15.2123
285.087585 83.508 15.2698
287.153442 83.550 15.3215
289.234283 83.592 15.3649
291.330200 83.634 15.3963
293.441284 83.675 15.4189
295.567688 83.714 15.4348
297.709503 83.752 15.4440
299.866821 83.790 15.4471
302.039795 83.828 15.4450
304.228485 83.864 15.4380
306.433044 83.898 15.4280
308.653595 83.931 15.4171
310.890228 83.963 15.4050
313.143066 83.995 15.3928
315.412231 84.027 15.3790
317.697845 84.058 15.3630
320.000000 84.089 15.3441
322.318848 84.120 15.3216
324.654510 84.150 15.2951
327.007080 84.180 15.2637
329.376709 84.209 15.2281
331.763519 84.237 15.1876
334.167603 84.263 15.1451
336.589142 84.288 15.1036
339.028198 84.312 15.0621
341.484924 84.336 15.0206
343.959473 84.359 14.9801
346.451935 84.380 14.9417
348.962463 84.401 14.9061
351.491211 84.422 14.8759
354.038239 84.443 14.8471
356.603760 84.466 14.8172
359.187866 84.489 14.7841
361.790680 84.512 14.7450
364.412354 84.534 14.7001
367.053040 84.556 14.6491
369.712860 84.578 14.5912
372.391968 84.599 14.5255
375.090454 84.620 14.4522
377.808533 84.639 14.3703
380.546265 84.656 14.2833
383.303864 84.670 14.1930
386.081451 84.681 14.1033
388.879150 84.690 14.0182
391.697144 84.698 13.9382
394.535522 84.704 13.8643
397.394501 84.708 13.7982
400.274170 84.710 13.7417
403.174744 84.711 13.6951
406.096313 84.712 13.6597
409.039062 84.713 13.6341
412.003113 84.713 13.6172
414.988647 84.713 13.6090
417.995850 84.713 13.6092
421.024811 84.713 13.6170
424.075714 84.713 13.6314
427.148743 84.713 13.6529
430.244049 84.713 13.6814
433.361786 84.713 13.7169
436.502106 84.713 13.7590
439.665161 84.713 13.8088
442.851166 84.713 13.8668
446.060242 84.713 13.9338
449.292572 84.713 14.0107
452.548340 84.714 14.0977
455.827698 84.716 14.1959
459.130798 84.719 14.3036
462.457855 84.724 14.4210
465.809021 84.731 14.5446
469.184448 84.741 14.6713
472.584381 84.753 14.7996
476.008911 84.767 14.9270
479.458252 84.782 15.0526
482.932617 84.799 15.1755
486.432159 84.819 15.2926
489.957031 84.841 15.4007
493.507477 84.864 15.4997
497.083618 84.887 15.5879
500.685699 84.911 15.6668
504.313873 84.936 15.7372
507.968323 84.961 15.7988
511.649292 84.985 15.8514
515.356934 85.010 15.8959
519.091370 85.034 15.9331
522.852966 85.059 15.9629
526.641724 85.083 15.9854
530.458008 85.107 16.0010
534.301941 85.130 16.0094
538.173706 85.152 16.0120
542.073547 85.174 16.0096
546.001648 85.195 16.0030
549.958191 85.214 15.9930
553.943420 85.232 15.9810
557.957520 85.249 15.9682
562.000671 85.266 15.9560
566.073181 85.281 15.9460
570.175171 85.296 15.9390
574.306885 85.310 15.9374
578.468567 85.324 15.9390
582.660400 85.339 15.9430
586.882568 85.354 15.9480
591.135376 85.370 15.9526
595.419006 85.386 15.9550
599.733643 85.403 15.9529
604.079590 85.420 15.9460
608.456970 85.437 15.9329
612.866089 85.453 15.9151
617.307190 85.467 15.8930
621.780457 85.481 15.8681
626.286133 85.494 15.8421
630.824463 85.507 15.8151
635.395691 85.518 15.7872
640.000000 85.529 15.7591
644.637695 85.539 15.7314
649.309021 85.548 15.7051
654.014160 85.555 15.6813
658.753418 85.562 15.6601
663.527039 85.568 15.6419
668.335205 85.574 15.6270
673.178284 85.578 15.6153
678.056396 85.582 15.6090
682.969849 85.585 15.6100
687.918945 85.587 15.6190
692.903870 85.589 15.6379
697.924927 85.591 15.6639
702.982422 85.595 15.6958
708.076477 85.600 15.7309
713.207520 85.606 15.7661
718.375732 85.612 15.8009
723.581360 85.618 15.8336
728.824707 85.624 15.8649
734.106079 85.630 15.8945
739.425720 85.636 15.9229
744.783936 85.641 15.9493
750.180908 85.644 15.9769
755.617065 85.646 16.0084
761.092529 85.647 16.0449
766.607727 85.648 16.0885
772.162903 85.649 16.1388
777.758301 85.649 16.1958
783.394287 85.649 16.2598
789.071045 85.649 16.3307
794.789001 85.649 16.4087
800.548340 85.649 16.4936
806.349487 85.649 16.5857
812.192627 85.649 16.6850
818.078125 85.649 16.7926
824.006226 85.649 16.9091
829.977295 85.649 17.0355
835.991699 85.650 17.1730
842.049622 85.652 17.3214
848.151428 85.655 17.4817
854.297485 85.659 17.6524
860.488098 85.665 17.8334
866.723572 85.674 18.0213
873.004211 85.686 18.2137
879.330322 85.702 18.4063
885.702332 85.720 18.5950
892.120483 85.741 18.7764
898.585144 85.765 18.9470
905.096680 85.791 19.1035
911.655396 85.818 19.2412
918.261597 85.846 19.3606
924.915710 85.873 19.4590
931.618042 85.899 19.5407
938.368896 85.922 19.6065
945.168762 85.941 19.6648
952.017822 85.955 19.7207
958.916504 85.964 19.7857
965.865234 85.968 19.8705
972.864319 85.968 19.9835
979.914062 85.966 20.1364
987.014954 85.964 20.3302
994.167236 85.963 20.5725
1001.371399 85.967 20.8559
1008.627747 85.978 21.1814
1015.936646 85.998 21.5305
1023.298584 86.031 21.8918
1030.713867 86.075 22.2449
1038.182739 86.131 22.5683
