* Measurement data measured by REW V5.20.13
* Source: C:\Users\kurin\Desktop\Targets and Curves\Resolve\Img\Files\Focal_Utopia_2022_5128_SPL.txt
* Format: Comma/Tab/Space delimited data
* Dated: Aug 14, 2023 3:54:21 PM
* REW Settings:
*  C-weighting compensation: Off
*  Target level: 75.0 dB
* Note: ; Measurement imported from C:\Users\kurin\Desktop\Targets and Curves\Resolve\Img\Files\Focal_Utopia_2022_5128_SPL.txt Format: Comma/Tab/Space delimited data 623 values loaded, 5 Hz to 39,792 Hz log spaced 
* Measurement: Focal_Utopia_2022_5128_SPL
* Smoothing: 1/48 octave
* Frequency Step: 1/96 octave
* Start Frequency: 5.000 Hz
*
* Freq(Hz) SPL(dB) Phase(degrees)
5.000000 75.954 51.8520
5.036232 75.971 51.8424
5.072727 75.989 51.8320
5.109486 76.010 51.8198
5.146511 76.035 51.8060
5.183805 76.065 51.7904
5.221369 76.097 51.7740
5.259205 76.130 51.7582
5.297316 76.165 51.7420
5.335702 76.202 51.7246
5.374367 76.240 51.7070
5.413311 76.277 51.6899
5.452538 76.315 51.6730
5.492050 76.352 51.6561
5.531847 76.390 51.6390
5.571934 76.427 51.6216
5.612310 76.465 51.6040
5.652979 76.502 51.5865
5.693943 76.540 51.5690
5.735204 76.577 51.5516
5.776763 76.615 51.5340
5.818624 76.653 51.5161
5.860788 76.691 51.4980
5.903258 76.729 51.4801
5.946035 76.766 51.4620
5.989123 76.803 51.4436
6.032523 76.841 51.4250
6.076237 76.878 51.4065
6.120268 76.916 51.3880
6.164618 76.953 51.3696
6.209289 76.991 51.3510
6.254284 77.028 51.3321
6.299605 77.066 51.3130
6.345255 77.103 51.2936
6.391235 77.141 51.2740
6.437549 77.179 51.2545
6.484198 77.217 51.2350
6.531185 77.255 51.2156
6.578513 77.292 51.1960
6.626183 77.329 51.1756
6.674199 77.367 51.1550
6.722563 77.404 51.1350
6.771278 77.442 51.1150
6.820345 77.479 51.0946
6.869768 77.517 51.0740
6.919549 77.554 51.0531
6.969691 77.592 51.0320
7.020196 77.629 51.0111
7.071068 77.667 50.9900
7.122308 77.704 50.9686
7.173919 77.742 50.9470
7.225904 77.780 50.9251
7.278266 77.818 50.9030
7.331007 77.856 50.8811
7.384131 77.893 50.8590
7.437639 77.930 50.8366
7.491535 77.968 50.8140
7.545822 78.005 50.7916
7.600502 78.043 50.7690
7.655579 78.080 50.7461
7.711054 78.118 50.7230
7.766932 78.155 50.6996
7.823214 78.193 50.6760
7.879904 78.230 50.6526
7.937005 78.268 50.6290
7.994520 78.306 50.6046
8.052452 78.344 50.5800
8.110803 78.382 50.5561
8.169578 78.419 50.5320
8.228777 78.456 50.5071
8.288406 78.494 50.4820
8.348468 78.531 50.4571
8.408964 78.569 50.4320
8.469899 78.606 50.4066
8.531276 78.644 50.3810
8.593097 78.681 50.3551
8.655366 78.719 50.3290
8.718086 78.756 50.3031
8.781260 78.794 50.2770
8.844893 78.832 50.2506
8.908987 78.870 50.2240
8.973545 78.908 50.1971
9.038571 78.945 50.1700
9.104069 78.982 50.1426
9.170040 79.020 50.1150
9.236490 79.057 50.0876
9.303422 79.095 50.0600
9.370838 79.132 50.0316
9.438744 79.170 50.0030
9.507140 79.207 49.9746
9.576033 79.245 49.9460
9.645425 79.282 49.9171
9.715320 79.320 49.8880
9.785721 79.358 49.8591
9.856632 79.396 49.8300
9.928058 79.434 49.8002
10.000000 79.471 49.7700
10.072464 79.508 49.7396
10.145453 79.546 49.7090
10.218971 79.583 49.6786
10.293022 79.621 49.6480
10.367610 79.659 49.6166
10.442738 79.696 49.5850
10.518411 79.733 49.5536
10.594631 79.771 49.5220
10.671404 79.809 49.4902
10.748734 79.846 49.4580
10.826623 79.883 49.4251
10.905077 79.921 49.3920
10.984100 79.959 49.3591
11.063695 79.997 49.3260
11.143867 80.035 49.2926
11.224621 80.072 49.2590
11.305959 80.109 49.2252
11.387886 80.147 49.1910
11.470407 80.184 49.1561
11.553527 80.222 49.1210
11.637249 80.259 49.0861
11.721577 80.297 49.0510
11.806517 80.334 49.0157
11.892071 80.372 48.9800
11.978246 80.409 48.9436
12.065045 80.447 48.9070
12.152473 80.485 48.8706
12.240536 80.523 48.8340
12.329235 80.561 48.7967
12.418578 80.598 48.7590
12.508568 80.635 48.7211
12.599211 80.673 48.6830
12.690510 80.710 48.6447
12.782471 80.748 48.6060
12.875097 80.785 48.5672
12.968395 80.823 48.5280
13.062370 80.860 48.4887
13.157025 80.898 48.4490
13.252366 80.935 48.4086
13.348398 80.973 48.3680
13.445127 81.011 48.3277
13.542556 81.049 48.2870
13.640691 81.087 48.2458
13.739536 81.124 48.2040
13.839099 81.161 48.1616
13.939383 81.199 48.1190
14.040393 81.236 48.0767
14.142136 81.274 48.0340
14.244616 81.311 47.9907
14.347837 81.349 47.9470
14.451808 81.386 47.9032
14.556532 81.424 47.8590
14.662014 81.461 47.8142
14.768262 81.499 47.7691
14.875278 81.536 47.7237
14.983070 81.574 47.6781
15.091644 81.612 47.6317
15.201005 81.650 47.5850
15.311157 81.688 47.5382
15.422109 81.725 47.4910
15.533863 81.762 47.4437
15.646428 81.800 47.3960
15.759809 81.837 47.3477
15.874010 81.875 47.2990
15.989040 81.912 47.2502
16.104904 81.950 47.2010
16.221605 81.987 47.1512
16.339155 82.025 47.1011
16.457554 82.062 47.0507
16.576813 82.100 47.0000
16.696936 82.138 46.9492
16.817928 82.176 46.8980
16.939798 82.214 46.8463
17.062551 82.251 46.7941
17.186193 82.288 46.7412
17.310732 82.326 46.6880
17.436172 82.363 46.6347
17.562521 82.401 46.5810
17.689787 82.438 46.5272
17.817974 82.476 46.4731
17.947090 82.513 46.4187
18.077143 82.551 46.3640
18.208138 82.588 46.3091
18.340080 82.626 46.2541
18.472980 82.664 46.1990
18.606844 82.702 46.1440
18.741676 82.740 46.0889
18.877487 82.777 46.0341
19.014280 82.814 45.9798
19.152065 82.852 45.9261
19.290850 82.890 45.8732
19.430639 82.928 45.8210
19.571442 82.967 45.7699
19.713264 83.006 45.7181
19.856115 83.046 45.6643
20.000000 83.087 45.6071
20.144928 83.128 45.5438
20.290907 83.169 45.4761
20.437943 83.210 45.4048
20.586044 83.250 45.3301
20.735220 83.290 45.2518
20.885475 83.330 45.1711
21.036821 83.369 45.0880
21.189262 83.407 45.0051
21.342808 83.444 44.9258
21.497467 83.482 44.8481
21.653246 83.521 44.7716
21.810154 83.560 44.6951
21.968201 83.599 44.6177
22.127390 83.639 44.5381
22.287735 83.680 44.4557
22.449242 83.721 44.3681
22.611917 83.762 44.2718
22.775772 83.803 44.1691
22.940815 83.842 44.0608
23.107054 83.881 43.9482
23.274498 83.919 43.8329
23.443153 83.957 43.7152
23.613033 83.993 43.5948
23.784142 84.027 43.4751
23.956491 84.060 43.3594
24.130091 84.092 43.2481
24.304947 84.124 43.1428
24.481071 84.155 43.0431
24.658470 84.186 42.9494
24.837156 84.217 42.8621
25.017136 84.248 42.7825
25.198421 84.279 42.7091
25.381020 84.311 42.6417
25.564941 84.345 42.5781
25.750195 84.380 42.5165
25.936790 84.417 42.4551
26.124741 84.455 42.3919
26.314051 84.494 42.3251
26.504732 84.535 42.2527
26.696796 84.576 42.1731
26.890253 84.618 42.0835
27.085112 84.660 41.9851
27.281382 84.702 41.8776
27.479073 84.743 41.7632
27.678198 84.783 41.6435
27.878765 84.823 41.5192
28.080786 84.862 41.3906
28.284271 84.901 41.2592
28.489231 84.939 41.1269
28.695675 84.976 40.9922
28.903616 85.014 40.8543
29.113064 85.052 40.7122
29.324028 85.089 40.5647
29.536524 85.126 40.4122
29.750557 85.162 40.2547
29.966141 85.198 40.0922
30.183289 85.232 39.9233
30.402010 85.264 39.7522
30.622314 85.293 39.5813
30.844217 85.321 39.4142
31.067726 85.347 39.2555
31.292856 85.373 39.1042
31.519617 85.398 38.9614
31.748020 85.423 38.8262
31.978081 85.448 38.6983
32.209808 85.474 38.5762
32.443211 85.501 38.4590
32.678310 85.528 38.3442
32.915108 85.556 38.2291
33.153625 85.585 38.1131
33.393871 85.613 37.9935
33.635857 85.641 37.8732
33.879597 85.669 37.7545
34.125103 85.696 37.6372
34.372387 85.724 37.5215
34.621464 85.751 37.4082
34.872345 85.778 37.2976
35.125042 85.805 37.1901
35.379574 85.833 37.0871
35.635948 85.861 36.9861
35.894180 85.891 36.8859
36.154285 85.922 36.7851
36.416275 85.953 36.6828
36.680161 85.985 36.5772
36.945961 86.019 36.4667
37.213688 86.054 36.3492
37.483353 86.089 36.2217
37.754974 86.124 36.0852
38.028561 86.159 35.9399
38.304131 86.193 35.7852
38.581699 86.227 35.6199
38.861279 86.260 35.4463
39.142883 86.290 35.2648
39.426529 86.318 35.0803
39.712231 86.344 34.8981
40.000000 86.369 34.7173
40.289856 86.394 34.5378
40.581814 86.417 34.3613
40.875885 86.438 34.1884
41.172089 86.458 34.0212
41.470440 86.477 33.8631
41.770950 86.497 33.7102
42.073643 86.518 33.5595
42.378525 86.538 33.4122
42.685616 86.557 33.2681
42.994934 86.576 33.1282
43.306492 86.595 32.9942
43.620308 86.614 32.8642
43.936401 86.633 32.7365
44.254780 86.653 32.6122
44.575470 86.672 32.4924
44.898483 86.692 32.3752
45.223835 86.713 32.2597
45.551544 86.735 32.1442
45.881630 86.757 32.0261
46.214108 86.780 31.9062
46.548996 86.802 31.7842
46.886307 86.825 31.6602
47.226067 86.848 31.5346
47.568283 86.871 31.4062
47.912983 86.894 31.2731
48.260181 86.916 31.1372
48.609894 86.937 30.9992
48.962143 86.957 30.8612
49.316940 86.977 30.7261
49.674313 86.997 30.5922
50.034271 87.017 30.4583
50.396843 87.036 30.3252
50.762039 87.054 30.1930
51.129883 87.071 30.0632
51.500389 87.089 29.9375
51.873581 87.107 29.8152
52.249481 87.124 29.6963
52.628101 87.141 29.5802
53.009464 87.159 29.4666
53.393593 87.177 29.3552
53.780506 87.195 29.2452
54.170223 87.214 29.1372
54.562763 87.233 29.0320
54.958145 87.252 28.9272
55.356396 87.273 28.8202
55.757530 87.294 28.7112
56.161572 87.315 28.5987
56.568542 87.335 28.4842
56.978462 87.355 28.3694
57.391350 87.376 28.2522
57.807232 87.398 28.1310
58.226128 87.420 28.0062
58.648056 87.440 27.8771
59.073048 87.459 27.7462
59.501114 87.478 27.6162
59.932281 87.497 27.4862
60.366577 87.515 27.3562
60.804020 87.533 27.2272
61.244629 87.550 27.0999
61.688435 87.566 26.9752
62.135452 87.582 26.8546
62.585712 87.598 26.7372
63.039234 87.615 26.6232
63.496040 87.632 26.5112
63.956161 87.649 26.4001
64.419617 87.667 26.2892
64.886421 87.685 26.1771
65.356621 87.703 26.0642
65.830215 87.722 25.9507
66.307251 87.741 25.8352
66.787743 87.760 25.7159
67.271713 87.779 25.5942
67.759193 87.797 25.4711
68.250206 87.814 25.3472
68.744774 87.832 25.2238
69.242928 87.850 25.1002
69.744690 87.867 24.9765
70.250084 87.885 24.8522
70.759148 87.903 24.7271
71.271896 87.921 24.6002
71.788361 87.938 24.4697
72.308571 87.955 24.3382
72.832550 87.971 24.2081
73.360321 87.987 24.0782
73.891922 88.003 23.9487
74.427376 88.020 23.8183
74.966705 88.036 23.6852
75.509949 88.052 23.5512
76.057121 88.067 23.4171
76.608261 88.082 23.2833
77.163399 88.096 23.1512
77.722557 88.111 23.0193
78.285767 88.126 22.8862
78.853058 88.141 22.7523
79.424461 88.155 22.6165
80.000000 88.168 22.4813
80.579712 88.180 22.3496
81.163628 88.193 22.2192
81.751770 88.207 22.0886
82.344177 88.220 21.9583
82.940880 88.232 21.8282
83.541901 88.243 21.6993
84.147285 88.255 21.5731
84.757050 88.268 21.4472
85.371231 88.281 21.3196
85.989868 88.293 21.1913
86.612984 88.305 21.0632
87.240616 88.317 20.9343
87.872803 88.330 20.8037
88.509560 88.342 20.6713
89.150940 88.353 20.5355
89.796967 88.364 20.3993
90.447670 88.374 20.2651
91.103088 88.383 20.1323
91.763260 88.392 20.0010
92.428215 88.401 19.8713
93.097992 88.409 19.7424
93.772614 88.417 19.6163
94.452133 88.425 19.4947
95.136566 88.432 19.3762
95.825966 88.439 19.2604
96.520363 88.447 19.1462
97.219788 88.455 19.0327
97.924286 88.463 18.9202
98.633881 88.471 18.8085
99.348625 88.478 18.6982
100.068542 88.485 18.5897
100.793686 88.493 18.4833
101.524078 88.500 18.3794
102.259766 88.508 18.2772
103.000778 88.516 18.1759
103.747162 88.524 18.0752
104.498962 88.532 17.9744
105.256203 88.541 17.8742
106.018929 88.549 17.7753
106.787186 88.558 17.6762
107.561012 88.568 17.5766
108.340446 88.579 17.4742
109.125526 88.589 17.3659
109.916290 88.599 17.2542
110.712791 88.608 17.1398
111.515060 88.617 17.0242
112.323143 88.626 16.9101
113.137085 88.634 16.7952
113.956924 88.643 16.6786
114.782700 88.651 16.5603
115.614464 88.659 16.4399
116.452255 88.667 16.3182
117.296112 88.674 16.1962
118.146095 88.680 16.0733
119.002228 88.686 15.9487
119.864563 88.692 15.8233
120.733154 88.696 15.6966
121.608040 88.700 15.5713
122.489258 88.702 15.4494
123.376869 88.704 15.3323
124.270905 88.705 15.2220
125.171425 88.705 15.1182
126.078468 88.706 15.0211
126.992081 88.707 14.9302
127.912323 88.708 14.8458
128.839233 88.710 14.7652
129.772842 88.714 14.6864
130.713242 88.719 14.6072
131.660431 88.724 14.5245
132.614502 88.730 14.4382
133.575485 88.736 14.3469
134.543427 88.742 14.2512
135.518387 88.748 14.1512
136.500412 88.754 14.0472
137.489548 88.759 13.9385
138.485855 88.763 13.8283
139.489380 88.765 13.7193
140.500168 88.766 13.6122
141.518295 88.767 13.5091
142.543793 88.768 13.4092
143.576721 88.768 13.3126
144.617142 88.768 13.2192
145.665100 88.768 13.1293
146.720642 88.768 13.0422
147.783844 88.768 12.9573
148.854752 88.768 12.8742
149.933411 88.768 12.7924
151.019897 88.768 12.7122
152.114243 88.768 12.6340
153.216522 88.768 12.5572
154.326797 88.768 12.4816
155.445114 88.768 12.4072
156.571533 88.768 12.3341
157.706116 88.768 12.2622
158.848923 88.768 12.1912
160.000000 88.768 12.1212
161.159424 88.768 12.0522
162.327255 88.768 11.9842
163.503540 88.768 11.9171
164.688354 88.768 11.8511
165.881760 88.768 11.7863
167.083801 88.768 11.7222
168.294571 88.768 11.6583
169.514099 88.768 11.5952
170.742462 88.768 11.5333
171.979736 88.768 11.4722
173.225967 88.768 11.4114
174.481232 88.768 11.3511
175.745605 88.768 11.2914
177.019119 88.768 11.2321
178.301880 88.768 11.1734
179.593933 88.768 11.1151
180.895340 88.768 11.0575
182.206177 88.768 11.0001
183.526520 88.768 10.9426
184.856430 88.768 10.8851
186.195984 88.768 10.8277
187.545227 88.768 10.7701
188.904266 88.768 10.7126
190.273132 88.768 10.6541
191.651932 88.768 10.5939
193.040726 88.768 10.5322
194.439575 88.767 10.4689
195.848572 88.766 10.4042
197.267761 88.765 10.3377
198.697250 88.763 10.2712
200.137085 88.759 10.2049
201.587372 88.754 10.1421
203.048157 88.748 10.0865
204.519531 88.742 10.0371
206.001556 88.736 9.9944
207.494324 88.730 9.9581
208.997925 88.724 9.9281
210.512405 88.719 9.9041
212.037857 88.714 9.8869
213.574371 88.710 9.8730
215.122025 88.708 9.8593
216.680893 88.707 9.8450
218.251053 88.706 9.8282
219.832581 88.705 9.8091
221.425583 88.705 9.7870
223.030121 88.705 9.7621
224.646286 88.705 9.7341
226.274170 88.705 9.7031
227.913849 88.705 9.6688
229.565399 88.704 9.6321
231.228928 88.702 9.5929
232.904510 88.700 9.5531
234.592224 88.697 9.5136
236.292191 88.692 9.4771
238.004456 88.686 9.4466
239.729126 88.680 9.4221
241.466309 88.674 9.4044
243.216080 88.668 9.3930
244.978516 88.662 9.3876
246.753738 88.656 9.3880
248.541809 88.652 9.3953
250.342850 88.648 9.4060
252.156937 88.646 9.4167
253.984161 88.644 9.4270
255.824646 88.643 9.4349
257.678467 88.643 9.4410
259.545685 88.643 9.4451
261.426483 88.643 9.4470
263.320862 88.643 9.4463
265.229004 88.643 9.4440
267.150970 88.643 9.4415
269.086853 88.643 9.4380
271.036774 88.643 9.4331
273.000824 88.643 9.4270
274.979095 88.643 9.4200
276.971710 88.643 9.4120
278.978760 88.643 9.4033
281.000336 88.643 9.3930
283.036591 88.643 9.3807
285.087585 88.643 9.3660
287.153442 88.643 9.3492
289.234283 88.643 9.3291
291.330200 88.642 9.3041
293.441284 88.641 9.2751
295.567688 88.640 9.2417
297.709503 88.637 9.2051
299.866821 88.632 9.1653
302.039795 88.626 9.1261
304.228485 88.617 9.0907
306.433044 88.607 9.0611
308.653595 88.595 9.0399
310.890228 88.582 9.0290
313.143066 88.567 9.0305
315.412231 88.552 9.0459
317.697845 88.536 9.0787
320.000000 88.521 9.1258
322.318848 88.508 9.1867
324.654510 88.496 9.2578
327.007080 88.486 9.3359
329.376709 88.477 9.4197
331.763519 88.470 9.5073
334.167603 88.465 9.5967
336.589142 88.461 9.6855
339.028198 88.458 9.7727
341.484924 88.457 9.8563
343.959473 88.456 9.9368
346.451935 88.456 10.0141
348.962463 88.456 10.0888
351.491211 88.456 10.1612
354.038239 88.456 10.2318
356.603760 88.456 10.3012
359.187866 88.456 10.3698
361.790680 88.456 10.4382
364.412354 88.456 10.5068
367.053040 88.456 10.5760
369.712860 88.456 10.6458
372.391968 88.456 10.7157
375.090454 88.456 10.7868
377.808533 88.456 10.8598
380.546265 88.456 10.9348
383.303864 88.456 11.0120
386.081451 88.456 11.0918
388.879150 88.456 11.1743
391.697144 88.457 11.2597
394.535522 88.458 11.3489
397.394501 88.460 11.4397
400.274170 88.463 11.5310
403.174744 88.468 11.6207
406.096313 88.474 11.7063
409.039062 88.480 11.7878
412.003113 88.486 11.8641
414.988647 88.492 11.9358
417.995850 88.498 12.0024
421.024811 88.503 12.0648
424.075714 88.508 12.1226
427.148743 88.512 12.1788
430.244049 88.514 12.2358
433.361786 88.516 12.2948
436.502106 88.517 12.3582
439.665161 88.518 12.4258
442.851166 88.518 12.4980
446.060242 88.518 12.5748
449.292572 88.518 12.6565
452.548340 88.518 12.7427
455.827698 88.518 12.8328
459.130798 88.518 12.9277
462.457855 88.518 13.0284
465.809021 88.518 13.1347
469.184448 88.518 13.2467
472.584381 88.519 13.3646
476.008911 88.521 13.4890
479.458252 88.523 13.6186
482.932617 88.526 13.7529
486.432159 88.531 13.8896
489.957031 88.538 14.0258
493.507477 88.545 14.1626
497.083618 88.552 14.3003
500.685699 88.560 14.4375
504.313873 88.570 14.5734
507.968323 88.580 14.7066
511.649292 88.591 14.8343
515.356934 88.602 14.9606
519.091370 88.611 15.0888
522.852966 88.621 15.2186
526.641724 88.632 15.3511
530.458008 88.644 15.4846
534.301941 88.656 15.6169
538.173706 88.668 15.7505
542.073547 88.680 15.8878
546.001648 88.693 16.0265
549.958191 88.708 16.1657
553.943420 88.724 16.3046
557.957520 88.740 16.4420
562.000671 88.756 16.5775
566.073181 88.774 16.7103
570.175171 88.793 16.8396
574.306885 88.811 16.9635
578.468567 88.830 17.0846
582.660400 88.849 17.2049
586.882568 88.868 17.3236
591.135376 88.887 17.4400
595.419006 88.907 17.5556
599.733643 88.926 17.6713
604.079590 88.945 17.7876
608.456970 88.965 17.9062
612.866089 88.985 18.0246
617.307190 89.007 18.1406
621.780457 89.029 18.2546
626.286133 89.051 18.3664
630.824463 89.073 18.4766
635.395691 89.096 18.5867
640.000000 89.120 18.6946
644.637695 89.144 18.7986
649.309021 89.169 18.8997
654.014160 89.193 18.9980
658.753418 89.218 19.0937
663.527039 89.243 19.1870
668.335205 89.268 19.2777
673.178284 89.293 19.3651
678.056396 89.318 19.4507
682.969849 89.342 19.5358
687.918945 89.367 19.6207
692.903870 89.392 19.7061
697.924927 89.417 19.7917
702.982422 89.442 19.8773
708.076477 89.468 19.9627
713.207520 89.494 20.0486
718.375732 89.521 20.1327
723.581360 89.549 20.2128
728.824707 89.578 20.2887
734.106079 89.606 20.3588
739.425720 89.633 20.4258
744.783936 89.660 20.4918
750.180908 89.686 20.5578
755.617065 89.712 20.6254
761.092529 89.739 20.6947
766.607727 89.765 20.7656
772.162903 89.791 20.8397
777.758301 89.817 20.9195
783.394287 89.844 21.0027
789.071045 89.873 21.0885
794.789001 89.903 21.1747
800.548340 89.934 21.2590
806.349487 89.966 21.3407
812.192627 89.999 21.4186
818.078125 90.033 21.4917
824.006226 90.068 21.5584
829.977295 90.103 21.6198
835.991699 90.138 21.6768
842.049622 90.174 21.7288
848.151428 90.210 21.7752
854.297485 90.247 21.8169
860.488098 90.282 21.8537
866.723572 90.318 21.8879
873.004211 90.354 21.9223
879.330322 90.391 21.9539
885.702332 90.429 21.9806
892.120483 90.467 22.0019
898.585144 90.504 22.0163
905.096680 90.542 22.0250
911.655396 90.580 22.0289
918.261597 90.618 22.0280
924.915710 90.655 22.0217
931.618042 90.691 22.0120
938.368896 90.727 22.0010
945.168762 90.763 21.9890
952.017822 90.798 21.9778
958.916504 90.834 21.9660
965.865234 90.870 21.9538
972.864319 90.907 21.9391
979.914062 90.944 21.9197
987.014954 90.982 21.8961
994.167236 91.019 21.8678
1001.371399 91.056 21.8351
1008.627747 91.093 21.7978
