* Measurement data measured by REW V5.20.13
* Source: C:\Users\kurin\Desktop\Targets and Curves\Resolve\Img\Files\Audeze maxwell 5128_SPL.txt
* Format: Comma/Tab/Space delimited data
* Dated: Aug 14, 2023 3:02:46 PM
* REW Settings:
*  C-weighting compensation: Off
*  Target level: 75.0 dB
* Note: ; Measurement imported from C:\Users\kurin\Desktop\Targets and Curves\Resolve\Img\Files\Audeze maxwell 5128_SPL.txt Format: Comma/Tab/Space delimited data 623 values loaded, 5 Hz to 39,792 Hz log spaced 
* Measurement: Audeze maxwell 5128_SPL
* Smoothing: 1/48 octave
* Frequency Step: 1/96 octave
* Start Frequency: 5.000 Hz
*
* Freq(Hz) SPL(dB) Phase(degrees)
5.000000 62.364 132.8660
5.036232 62.409 132.8211
5.072727 62.458 132.7730
5.109486 62.516 132.7179
5.146511 62.582 132.6550
5.183805 62.661 132.5797
5.221369 62.747 132.4990
5.259205 62.836 132.4195
5.297316 62.929 132.3370
5.335702 63.028 132.2480
5.374367 63.129 132.1570
5.413311 63.229 132.0680
5.452538 63.330 131.9790
5.492050 63.431 131.8893
5.531847 63.531 131.7990
5.571934 63.631 131.7083
5.612310 63.731 131.6170
5.652979 63.831 131.5253
5.693943 63.932 131.4330
5.735204 64.033 131.3398
5.776763 64.133 131.2460
5.818624 64.233 131.1518
5.860788 64.333 131.0570
5.903258 64.433 130.9614
5.946035 64.534 130.8650
5.989123 64.635 130.7678
6.032523 64.735 130.6700
6.076237 64.835 130.5718
6.120268 64.935 130.4730
6.164618 65.035 130.3734
6.209289 65.136 130.2730
6.254284 65.236 130.1718
6.299605 65.337 130.0700
6.345255 65.438 129.9679
6.391235 65.538 129.8650
6.437549 65.638 129.7610
6.484198 65.738 129.6560
6.531185 65.838 129.5503
6.578513 65.939 129.4440
6.626183 66.040 129.3374
6.674199 66.140 129.2300
6.722563 66.240 129.1215
6.771278 66.340 129.0120
6.820345 66.440 128.9019
6.869768 66.541 128.7910
6.919549 66.642 128.6794
6.969691 66.742 128.5670
7.020196 66.842 128.4540
7.071068 66.942 128.3400
7.122308 67.042 128.2250
7.173919 67.143 128.1090
7.225904 67.244 127.9924
7.278266 67.344 127.8750
7.331007 67.444 127.7570
7.384131 67.544 127.6380
7.437639 67.644 127.5180
7.491535 67.745 127.3970
7.545822 67.845 127.2755
7.600502 67.946 127.1530
7.655579 68.047 127.0295
7.711054 68.147 126.9050
7.766932 68.247 126.7800
7.823214 68.347 126.6540
7.879904 68.447 126.5265
7.937005 68.548 126.3981
7.994520 68.649 126.2690
8.052452 68.749 126.1390
8.110803 68.849 126.0080
8.169578 68.949 125.8761
8.228777 69.049 125.7431
8.288406 69.150 125.6091
8.348468 69.251 125.4740
8.408964 69.351 125.3380
8.469899 69.451 125.2010
8.531276 69.551 125.0631
8.593097 69.651 124.9241
8.655366 69.752 124.7841
8.718086 69.853 124.6431
8.781260 69.953 124.5011
8.844893 70.053 124.3581
8.908987 70.153 124.2141
8.973545 70.253 124.0686
9.038571 70.354 123.9221
9.104069 70.454 123.7746
9.170040 70.555 123.6261
9.236490 70.656 123.4761
9.303422 70.756 123.3251
9.370838 70.856 123.1731
9.438744 70.956 123.0201
9.507140 71.056 122.8656
9.576033 71.157 122.7101
9.645425 71.258 122.5536
9.715320 71.358 122.3961
9.785721 71.458 122.2372
9.856632 71.558 122.0771
9.928058 71.658 121.9157
10.000000 71.759 121.7531
10.072464 71.859 121.5893
10.145453 71.960 121.4242
10.218971 72.060 121.2578
10.293022 72.160 121.0900
10.367610 72.260 120.9206
10.442738 72.361 120.7500
10.518411 72.462 120.5786
10.594631 72.562 120.4060
10.671404 72.662 120.2317
10.748734 72.762 120.0560
10.826623 72.862 119.8792
10.905077 72.963 119.7011
10.984100 73.063 119.5218
11.063695 73.164 119.3411
11.143867 73.265 119.1588
11.224621 73.365 118.9751
11.305959 73.465 118.7898
11.387886 73.565 118.6031
11.470407 73.665 118.4148
11.553527 73.766 118.2251
11.637249 73.867 118.0343
11.721577 73.967 117.8422
11.806517 74.067 117.6485
11.892071 74.167 117.4532
11.978246 74.267 117.2559
12.065045 74.368 117.0570
12.152473 74.469 116.8573
12.240536 74.569 116.6560
12.329235 74.669 116.4529
12.418578 74.769 116.2482
12.508568 74.869 116.0420
12.599211 74.970 115.8341
12.690510 75.070 115.6245
12.782471 75.171 115.4132
12.875097 75.271 115.2005
12.968395 75.371 114.9862
13.062370 75.471 114.7700
13.157025 75.572 114.5521
13.252366 75.672 114.3324
13.348398 75.773 114.1112
13.445127 75.873 113.8886
13.542556 75.974 113.6643
13.640691 76.074 113.4376
13.739536 76.174 113.2091
13.839099 76.274 112.9790
13.939383 76.375 112.7472
14.040393 76.475 112.5141
14.142136 76.576 112.2791
14.244616 76.676 112.0415
14.347837 76.776 111.8021
14.451808 76.876 111.5615
14.556532 76.977 111.3191
14.662014 77.077 111.0747
14.768262 77.178 110.8283
14.875278 77.278 110.5798
14.983070 77.378 110.3293
15.091644 77.478 110.0767
15.201005 77.579 109.8222
15.311157 77.679 109.5661
15.422109 77.780 109.3082
15.533863 77.880 109.0482
15.646428 77.980 108.7861
15.759809 78.080 108.5221
15.874010 78.181 108.2562
15.989040 78.281 107.9886
16.104904 78.382 107.7192
16.221605 78.482 107.4482
16.339155 78.583 107.1753
16.457554 78.683 106.9002
16.576813 78.783 106.6232
16.696936 78.883 106.3446
16.817928 78.984 106.0642
16.939798 79.084 105.7820
17.062551 79.185 105.4984
17.186193 79.285 105.2135
17.310732 79.385 104.9272
17.436172 79.485 104.6393
17.562521 79.586 104.3502
17.689787 79.686 104.0602
17.817974 79.787 103.7693
17.947090 79.887 103.4779
18.077143 79.987 103.1862
18.208138 80.087 102.8941
18.340080 80.188 102.6023
18.472980 80.288 102.3114
18.606844 80.389 102.0222
18.741676 80.489 101.7349
18.877487 80.589 101.4513
19.014280 80.689 101.1720
19.152065 80.790 100.9003
19.290850 80.890 100.6386
19.430639 80.991 100.3902
19.571442 81.093 100.1589
19.713264 81.198 99.9453
19.856115 81.307 99.7535
20.000000 81.423 99.5762
20.144928 81.547 99.4143
20.290907 81.681 99.2472
20.437943 81.830 99.0615
20.586044 81.991 98.8352
20.735220 82.162 98.5464
20.885475 82.341 98.1805
21.036821 82.526 97.7177
21.189262 82.712 97.1518
21.342808 82.894 96.4638
21.497467 83.068 95.6721
21.653246 83.226 94.7776
21.810154 83.367 93.8143
21.968201 83.487 92.8056
22.127390 83.588 91.7841
22.287735 83.668 90.7828
22.449242 83.732 89.8247
22.611917 83.782 88.9441
22.775772 83.825 88.1409
22.940815 83.866 87.4326
23.107054 83.908 86.8018
23.274498 83.956 86.2456
23.443153 84.012 85.7387
23.613033 84.080 85.2618
23.784142 84.158 84.7934
23.956491 84.244 84.3060
24.130091 84.335 83.7976
24.304947 84.426 83.2534
24.481071 84.517 82.6847
24.658470 84.604 82.0934
24.837156 84.689 81.4938
25.017136 84.768 80.8996
25.198421 84.847 80.3146
25.381020 84.927 79.7515
25.564941 85.012 79.1975
25.750195 85.103 78.6517
25.936790 85.202 78.0917
26.124741 85.310 77.5005
26.314051 85.423 76.8610
26.504732 85.540 76.1491
26.696796 85.655 75.3680
26.890253 85.763 74.5039
27.085112 85.860 73.5841
27.281382 85.941 72.6208
27.479073 86.008 71.6453
27.678198 86.058 70.6864
27.878765 86.096 69.7643
28.080786 86.124 68.9094
28.284271 86.147 68.1200
28.489231 86.171 67.4115
28.695675 86.200 66.7628
28.903616 86.238 66.1670
29.113064 86.286 65.5968
29.324028 86.347 65.0296
29.536524 86.417 64.4447
29.750557 86.496 63.8141
29.966141 86.579 63.1368
30.183289 86.662 62.3983
30.402010 86.742 61.6110
30.622314 86.816 60.7781
30.844217 86.885 59.9130
31.067726 86.947 59.0276
31.292856 87.003 58.1304
31.519617 87.053 57.2329
31.748020 87.100 56.3381
31.978081 87.144 55.4549
32.209808 87.187 54.5761
32.443211 87.231 53.7018
32.678310 87.277 52.8191
32.915108 87.326 51.9201
33.153625 87.377 50.9911
33.393871 87.430 50.0184
33.635857 87.481 48.9956
33.879597 87.529 47.9084
34.125103 87.569 46.7676
34.372387 87.597 45.5731
34.621464 87.612 44.3429
34.872345 87.612 43.0870
35.125042 87.596 41.8295
35.379574 87.562 40.5916
35.635948 87.512 39.3924
35.894180 87.447 38.2571
36.154285 87.371 37.1895
36.416275 87.288 36.2043
36.680161 87.199 35.2934
36.945961 87.109 34.4553
37.213688 87.017 33.6841
37.483353 86.925 32.9742
37.754974 86.833 32.3229
38.028561 86.741 31.7257
38.304131 86.650 31.1827
38.581699 86.559 30.6925
38.861279 86.470 30.2556
39.142883 86.382 29.8743
39.426529 86.298 29.5414
39.712231 86.220 29.2543
40.000000 86.149 29.0014
40.289856 86.085 28.7730
40.581814 86.028 28.5603
40.875885 85.978 28.3525
41.172089 85.932 28.1453
41.470440 85.890 27.9298
41.770950 85.850 27.7094
42.073643 85.810 27.4827
42.378525 85.771 27.2543
42.685616 85.732 27.0278
42.994934 85.692 26.8053
43.306492 85.651 26.5890
43.620308 85.609 26.3823
43.936401 85.566 26.1883
44.254780 85.522 26.0103
44.575470 85.477 25.8506
44.898483 85.431 25.7152
45.223835 85.382 25.6097
45.551544 85.333 25.5381
45.881630 85.285 25.5059
46.214108 85.239 25.5140
46.548996 85.195 25.5663
46.886307 85.156 25.6588
47.226067 85.123 25.7923
47.568283 85.098 25.9557
47.912983 85.083 26.1410
48.260181 85.076 26.3397
48.609894 85.078 26.5429
48.962143 85.089 26.7437
49.316940 85.109 26.9342
49.674313 85.136 27.1087
50.034271 85.170 27.2597
50.396843 85.211 27.3858
50.762039 85.256 27.4840
51.129883 85.306 27.5519
51.500389 85.361 27.5858
51.873581 85.419 27.5870
52.249481 85.479 27.5546
52.628101 85.540 27.4911
53.009464 85.602 27.3991
53.393593 85.666 27.2782
53.780506 85.731 27.1286
54.170223 85.797 26.9523
54.562763 85.863 26.7519
54.958145 85.930 26.5254
55.356396 86.000 26.2735
55.757530 86.071 25.9905
56.161572 86.143 25.6706
56.568542 86.216 25.3136
56.978462 86.287 24.9169
57.391350 86.357 24.4818
57.807232 86.425 24.0072
58.226128 86.489 23.4979
58.648056 86.548 22.9560
59.073048 86.602 22.3890
59.501114 86.651 21.8043
59.932281 86.696 21.2041
60.366577 86.737 20.5934
60.804020 86.775 19.9711
61.244629 86.809 19.3384
61.688435 86.841 18.6931
62.135452 86.871 18.0337
62.585712 86.897 17.3592
63.039234 86.918 16.6656
63.496040 86.934 15.9602
63.956161 86.944 15.2471
64.419617 86.947 14.5323
64.886421 86.944 13.8216
65.356621 86.935 13.1202
65.830215 86.919 12.4336
66.307251 86.899 11.7663
66.787743 86.875 11.1259
67.271713 86.848 10.5091
67.759193 86.820 9.9166
68.250206 86.791 9.3440
68.744774 86.761 8.7877
69.242928 86.730 8.2460
69.744690 86.699 7.7171
70.250084 86.668 7.1980
70.759148 86.636 6.6846
71.271896 86.603 6.1779
71.788361 86.569 5.6766
72.308571 86.532 5.1829
72.832550 86.493 4.6981
73.360321 86.451 4.2249
73.891922 86.407 3.7650
74.427376 86.361 3.3228
74.966705 86.313 2.9028
75.509949 86.263 2.5057
76.057121 86.213 2.1342
76.608261 86.162 1.7877
77.163399 86.112 1.4676
77.722557 86.064 1.1696
78.285767 86.019 0.8928
78.853058 85.978 0.6275
79.424461 85.941 0.3659
80.000000 85.908 0.1015
80.579712 85.878 -0.1730
81.163628 85.850 -0.4624
81.751770 85.825 -0.7745
82.344177 85.799 -1.1083
82.940880 85.770 -1.4685
83.541901 85.737 -1.8452
84.147285 85.699 -2.2332
84.757050 85.655 -2.6233
85.371231 85.605 -3.0075
85.989868 85.549 -3.3763
86.612984 85.486 -3.7200
87.240616 85.418 -4.0304
87.872803 85.345 -4.2970
88.509560 85.269 -4.5176
89.150940 85.193 -4.6850
89.796967 85.117 -4.8038
90.447670 85.044 -4.8748
91.103088 84.975 -4.9020
91.763260 84.910 -4.8879
92.428215 84.850 -4.8381
93.097992 84.797 -4.7551
93.772614 84.752 -4.6502
94.452133 84.716 -4.5331
95.136566 84.689 -4.4123
95.825966 84.669 -4.2966
96.520363 84.658 -4.1952
97.219788 84.655 -4.1173
97.924286 84.660 -4.0711
98.633881 84.671 -4.0674
99.348625 84.685 -4.1079
100.068542 84.701 -4.1984
100.793686 84.717 -4.3366
101.524078 84.733 -4.5240
102.259766 84.746 -4.7554
103.000778 84.755 -5.0287
103.747162 84.759 -5.3364
104.498962 84.758 -5.6725
105.256203 84.750 -6.0303
106.018929 84.736 -6.4041
106.787186 84.715 -6.7853
107.561012 84.686 -7.1660
108.340446 84.649 -7.5374
109.125526 84.606 -7.8910
109.916290 84.557 -8.2184
110.712791 84.502 -8.5101
111.515060 84.442 -8.7615
112.323143 84.380 -8.9627
113.137085 84.317 -9.1197
113.956924 84.258 -9.2319
114.782700 84.202 -9.3088
115.614464 84.151 -9.3555
116.452255 84.105 -9.3850
117.296112 84.068 -9.4080
118.146095 84.036 -9.4359
119.002228 84.009 -9.4834
119.864563 83.985 -9.5508
120.733154 83.962 -9.6446
121.608040 83.939 -9.7607
122.489258 83.914 -9.8998
123.376869 83.887 -10.0546
124.270905 83.855 -10.2200
125.171425 83.820 -10.3897
126.078468 83.781 -10.5574
126.992081 83.738 -10.7186
127.912323 83.691 -10.8674
128.839233 83.641 -11.0017
129.772842 83.590 -11.1182
130.713242 83.536 -11.2148
131.660431 83.480 -11.2903
132.614502 83.422 -11.3399
133.575485 83.362 -11.3593
134.543427 83.301 -11.3461
135.518387 83.241 -11.2950
136.500412 83.183 -11.2102
137.489548 83.128 -11.0927
138.485855 83.077 -10.9464
139.489380 83.031 -10.7731
140.500168 82.990 -10.5804
141.518295 82.956 -10.3737
142.543793 82.928 -10.1615
143.576721 82.908 -9.9527
144.617142 82.893 -9.7514
145.665100 82.883 -9.5639
146.720642 82.877 -9.3925
147.783844 82.876 -9.2409
148.854752 82.879 -9.1113
149.933411 82.884 -9.0067
151.019897 82.891 -8.9272
152.114243 82.900 -8.8734
153.216522 82.911 -8.8470
154.326797 82.923 -8.8504
155.445114 82.934 -8.8829
156.571533 82.944 -8.9458
157.706116 82.953 -9.0358
158.848923 82.960 -9.1507
160.000000 82.964 -9.2876
161.159424 82.965 -9.4451
162.327255 82.961 -9.6166
163.503540 82.952 -9.7964
164.688354 82.940 -9.9806
165.881760 82.925 -10.1639
167.083801 82.907 -10.3455
168.294571 82.885 -10.5235
169.514099 82.861 -10.6966
170.742462 82.835 -10.8627
171.979736 82.807 -11.0216
173.225967 82.777 -11.1717
174.481232 82.745 -11.3147
175.745605 82.713 -11.4520
177.019119 82.680 -11.5827
178.301880 82.645 -11.7072
179.593933 82.607 -11.8227
180.895340 82.568 -11.9263
182.206177 82.527 -12.0188
183.526520 82.487 -12.1003
184.856430 82.445 -12.1709
186.195984 82.402 -12.2311
187.545227 82.358 -12.2789
188.904266 82.315 -12.3116
190.273132 82.271 -12.3310
191.651932 82.227 -12.3382
193.040726 82.183 -12.3320
194.439575 82.139 -12.3109
195.848572 82.095 -12.2761
197.267761 82.054 -12.2271
198.697250 82.014 -12.1682
200.137085 81.977 -12.1020
201.587372 81.941 -12.0322
203.048157 81.908 -11.9619
204.519531 81.877 -11.8952
206.001556 81.848 -11.8376
207.494324 81.820 -11.7881
208.997925 81.790 -11.7492
210.512405 81.759 -11.7161
212.037857 81.727 -11.6853
213.574371 81.694 -11.6551
215.122025 81.659 -11.6241
216.680893 81.621 -11.5871
218.251053 81.582 -11.5387
219.832581 81.541 -11.4782
221.425583 81.500 -11.4023
223.030121 81.459 -11.3142
224.646286 81.419 -11.2163
226.274170 81.380 -11.1083
227.913849 81.340 -10.9914
229.565399 81.301 -10.8643
231.228928 81.262 -10.7264
232.904510 81.224 -10.5775
234.592224 81.186 -10.4174
236.292191 81.149 -10.2455
238.004456 81.112 -10.0606
239.729126 81.077 -9.8645
241.466309 81.045 -9.6576
243.216080 81.015 -9.4436
244.978516 80.987 -9.2260
246.753738 80.962 -9.0066
248.541809 80.939 -8.7878
250.342850 80.918 -8.5716
252.156937 80.899 -8.3620
253.984161 80.880 -8.1556
255.824646 80.861 -7.9513
257.678467 80.842 -7.7465
259.545685 80.824 -7.5382
261.426483 80.806 -7.3265
263.320862 80.789 -7.1110
265.229004 80.774 -6.8916
267.150970 80.760 -6.6660
269.086853 80.748 -6.4407
271.036774 80.741 -6.2199
273.000824 80.736 -6.0076
274.979095 80.732 -5.8092
276.971710 80.730 -5.6245
278.978760 80.729 -5.4553
281.000336 80.727 -5.3014
283.036591 80.725 -5.1662
285.087585 80.721 -5.0414
287.153442 80.712 -4.9213
289.234283 80.701 -4.8013
291.330200 80.689 -4.6754
293.441284 80.675 -4.5424
295.567688 80.659 -4.3998
297.709503 80.643 -4.2454
299.866821 80.627 -4.0745
302.039795 80.611 -3.8916
304.228485 80.598 -3.6980
306.433044 80.587 -3.4986
308.653595 80.578 -3.2981
310.890228 80.570 -3.0976
313.143066 80.564 -2.8989
315.412231 80.560 -2.7045
317.697845 80.557 -2.5181
320.000000 80.554 -2.3385
322.318848 80.551 -2.1671
324.654510 80.547 -2.0005
327.007080 80.543 -1.8365
329.376709 80.538 -1.6735
331.763519 80.532 -1.5093
334.167603 80.526 -1.3435
336.589142 80.520 -1.1749
339.028198 80.513 -1.0035
341.484924 80.506 -0.8292
343.959473 80.498 -0.6515
346.451935 80.490 -0.4698
348.962463 80.483 -0.2835
351.491211 80.476 -0.0919
354.038239 80.469 0.1044
356.603760 80.462 0.3045
359.187866 80.454 0.5094
361.790680 80.447 0.7192
364.412354 80.439 0.9364
367.053040 80.431 1.1629
369.712860 80.422 1.4002
372.391968 80.414 1.6504
375.090454 80.407 1.9132
377.808533 80.401 2.1889
380.546265 80.395 2.4791
383.303864 80.390 2.7858
386.081451 80.388 3.1080
388.879150 80.389 3.4476
391.697144 80.393 3.7989
394.535522 80.402 4.1581
397.394501 80.415 4.5219
400.274170 80.432 4.8865
403.174744 80.453 5.2499
406.096313 80.478 5.6100
409.039062 80.508 5.9629
412.003113 80.542 6.3043
414.988647 80.579 6.6330
417.995850 80.619 6.9466
421.024811 80.663 7.2441
424.075714 80.710 7.5238
427.148743 80.759 7.7852
430.244049 80.810 8.0278
433.361786 80.864 8.2493
436.502106 80.921 8.4489
439.665161 80.980 8.6225
442.851166 81.041 8.7656
446.060242 81.104 8.8787
449.292572 81.166 8.9612
452.548340 81.229 9.0119
455.827698 81.291 9.0292
459.130798 81.353 9.0131
462.457855 81.412 8.9610
465.809021 81.469 8.8793
469.184448 81.520 8.7716
472.584381 81.568 8.6434
476.008911 81.611 8.4998
479.458252 81.650 8.3455
482.932617 81.684 8.1856
486.432159 81.714 8.0235
489.957031 81.741 7.8643
493.507477 81.765 7.7075
497.083618 81.787 7.5539
500.685699 81.806 7.4045
504.313873 81.823 7.2613
507.968323 81.838 7.1224
511.649292 81.853 6.9868
515.356934 81.867 6.8534
519.091370 81.879 6.7201
522.852966 81.890 6.5894
526.641724 81.899 6.4633
530.458008 81.906 6.3414
534.301941 81.912 6.2235
538.173706 81.917 6.1104
542.073547 81.920 6.0023
546.001648 81.923 5.9003
549.958191 81.925 5.8061
553.943420 81.926 5.7183
557.957520 81.926 5.6364
562.000671 81.926 5.5602
566.073181 81.926 5.4896
570.175171 81.926 5.4232
574.306885 81.926 5.3599
578.468567 81.926 5.2992
582.660400 81.926 5.2407
586.882568 81.926 5.1832
591.135376 81.926 5.1258
595.419006 81.926 5.0672
599.733643 81.926 5.0063
604.079590 81.926 4.9422
608.456970 81.926 4.8742
612.866089 81.925 4.8003
617.307190 81.924 4.7177
621.780457 81.921 4.6273
626.286133 81.916 4.5282
630.824463 81.908 4.4224
635.395691 81.898 4.3103
640.000000 81.883 4.1964
644.637695 81.863 4.0822
649.309021 81.838 3.9773
654.014160 81.806 3.8893
658.753418 81.769 3.8262
663.527039 81.727 3.7960
668.335205 81.680 3.8069
673.178284 81.628 3.8678
678.056396 81.574 3.9845
682.969849 81.519 4.1666
687.918945 81.466 4.4110
692.903870 81.417 4.7198
697.924927 81.374 5.0866
702.982422 81.338 5.5102
708.076477 81.312 5.9772
713.207520 81.299 6.4797
718.375732 81.299 7.0011
723.581360 81.311 7.5264
728.824707 81.336 8.0432
734.106079 81.374 8.5388
739.425720 81.425 8.9994
744.783936 81.487 9.4092
750.180908 81.558 9.7609
755.617065 81.634 10.0419
761.092529 81.714 10.2524
766.607727 81.797 10.3884
772.162903 81.881 10.4499
777.758301 81.963 10.4335
783.394287 82.042 10.3454
789.071045 82.114 10.1874
794.789001 82.178 9.9699
800.548340 82.233 9.7006
806.349487 82.279 9.3902
812.192627 82.314 9.0476
818.078125 82.337 8.6853
824.006226 82.347 8.3135
829.977295 82.345 7.9483
835.991699 82.330 7.6041
842.049622 82.302 7.2961
848.151428 82.262 7.0405
854.297485 82.213 6.8486
860.488098 82.157 6.7355
866.723572 82.096 6.7050
873.004211 82.032 6.7674
879.330322 81.969 6.9183
885.702332 81.911 7.1612
892.120483 81.861 7.4817
898.585144 81.822 7.8732
905.096680 81.795 8.3163
911.655396 81.783 8.7959
918.261597 81.785 9.2931
924.915710 81.803 9.7886
931.618042 81.834 10.2683
938.368896 81.878 10.7139
945.168762 81.932 11.1186
952.017822 81.994 11.4703
958.916504 82.064 11.7660
965.865234 82.139 11.9993
