* Measurement data measured by REW V5.20.13
* Source: C:\Users\kurin\Desktop\Targets and Curves\Resolve\Img\Files\K371 5128_SPL.txt
* Format: Comma/Tab/Space delimited data
* Dated: Aug 14, 2023 5:30:13 PM
* REW Settings:
*  C-weighting compensation: Off
*  Target level: 75.0 dB
* Note: ; Measurement imported from C:\Users\kurin\Desktop\Targets and Curves\Resolve\Img\Files\K371 5128_SPL.txt Format: Comma/Tab/Space delimited data 623 values loaded, 5 Hz to 39,792 Hz log spaced 
* Measurement: K371 5128_SPL
* Smoothing: 1/48 octave
* Frequency Step: 1/96 octave
* Start Frequency: 5.000 Hz
*
* Freq(Hz) SPL(dB) Phase(degrees)
5.000000 97.394 -7.5500
5.036232 97.393 -7.5591
5.072727 97.391 -7.5690
5.109486 97.389 -7.5806
5.146511 97.387 -7.5940
5.183805 97.385 -7.6101
5.221369 97.382 -7.6280
5.259205 97.379 -7.6469
5.297316 97.376 -7.6670
5.335702 97.373 -7.6882
5.374367 97.369 -7.7100
5.413311 97.366 -7.7319
5.452538 97.363 -7.7540
5.492050 97.360 -7.7764
5.531847 97.356 -7.7990
5.571934 97.353 -7.8214
5.612310 97.350 -7.8440
5.652979 97.347 -7.8669
5.693943 97.343 -7.8900
5.735204 97.340 -7.9134
5.776763 97.337 -7.9370
5.818624 97.334 -7.9609
5.860788 97.330 -7.9850
5.903258 97.326 -8.0089
5.946035 97.323 -8.0330
5.989123 97.320 -8.0574
6.032523 97.317 -8.0820
6.076237 97.313 -8.1069
6.120268 97.310 -8.1320
6.164618 97.307 -8.1569
6.209289 97.304 -8.1820
6.254284 97.300 -8.2079
6.299605 97.297 -8.2340
6.345255 97.294 -8.2600
6.391235 97.291 -8.2860
6.437549 97.288 -8.3119
6.484198 97.284 -8.3380
6.531185 97.280 -8.3648
6.578513 97.277 -8.3920
6.626183 97.274 -8.4194
6.674199 97.271 -8.4470
6.722563 97.268 -8.4744
6.771278 97.264 -8.5020
6.820345 97.261 -8.5298
6.869768 97.258 -8.5580
6.919549 97.255 -8.5869
6.969691 97.251 -8.6160
7.020196 97.248 -8.6450
7.071068 97.245 -8.6740
7.122308 97.242 -8.7029
7.173919 97.238 -8.7320
7.225904 97.235 -8.7618
7.278266 97.232 -8.7920
7.331007 97.229 -8.8224
7.384131 97.225 -8.8530
7.437639 97.221 -8.8839
7.491535 97.218 -8.9150
7.545822 97.215 -8.9459
7.600502 97.212 -8.9770
7.655579 97.209 -9.0088
7.711054 97.205 -9.0410
7.766932 97.202 -9.0734
7.823214 97.199 -9.1060
7.879904 97.196 -9.1384
7.937005 97.192 -9.1710
7.994520 97.189 -9.2043
8.052452 97.186 -9.2380
8.110803 97.183 -9.2719
8.169578 97.179 -9.3060
8.228777 97.176 -9.3404
8.288406 97.173 -9.3750
8.348468 97.170 -9.4099
8.408964 97.166 -9.4450
8.469899 97.162 -9.4804
8.531276 97.159 -9.5160
8.593097 97.156 -9.5519
8.655366 97.153 -9.5880
8.718086 97.150 -9.6243
8.781260 97.146 -9.6610
8.844893 97.143 -9.6983
8.908987 97.140 -9.7360
8.973545 97.137 -9.7739
9.038571 97.133 -9.8120
9.104069 97.130 -9.8504
9.170040 97.127 -9.8890
9.236490 97.124 -9.9278
9.303422 97.120 -9.9670
9.370838 97.117 -10.0069
9.438744 97.114 -10.0470
9.507140 97.111 -10.0868
9.576033 97.107 -10.1270
9.645425 97.103 -10.1683
9.715320 97.100 -10.2100
9.785721 97.097 -10.2514
9.856632 97.094 -10.2930
9.928058 97.090 -10.3353
10.000000 97.087 -10.3780
10.072464 97.084 -10.4208
10.145453 97.081 -10.4640
10.218971 97.077 -10.5078
10.293022 97.074 -10.5520
10.367610 97.071 -10.5963
10.442738 97.068 -10.6410
10.518411 97.065 -10.6863
10.594631 97.061 -10.7320
10.671404 97.057 -10.7778
10.748734 97.054 -10.8240
10.826623 97.051 -10.8708
10.905077 97.048 -10.9180
10.984100 97.045 -10.9653
11.063695 97.041 -11.0130
11.143867 97.038 -11.0612
11.224621 97.035 -11.1100
11.305959 97.032 -11.1593
11.387886 97.028 -11.2090
11.470407 97.025 -11.2588
11.553527 97.022 -11.3090
11.637249 97.019 -11.3597
11.721577 97.015 -11.4110
11.806517 97.012 -11.4627
11.892071 97.009 -11.5149
11.978246 97.006 -11.5678
12.065045 97.002 -11.6210
12.152473 96.998 -11.6742
12.240536 96.995 -11.7280
12.329235 96.992 -11.7827
12.418578 96.989 -11.8380
12.508568 96.986 -11.8932
12.599211 96.982 -11.9490
12.690510 96.979 -12.0057
12.782471 96.976 -12.0629
12.875097 96.973 -12.1202
12.968395 96.969 -12.1780
13.062370 96.966 -12.2367
13.157025 96.963 -12.2960
13.252366 96.960 -12.3552
13.348398 96.956 -12.4150
13.445127 96.953 -12.4756
13.542556 96.950 -12.5369
13.640691 96.947 -12.5986
13.739536 96.943 -12.6610
13.839099 96.939 -12.7241
13.939383 96.936 -12.7879
14.040393 96.933 -12.8522
14.142136 96.930 -12.9170
14.244616 96.926 -12.9822
14.347837 96.923 -13.0480
14.451808 96.920 -13.1147
14.556532 96.917 -13.1820
14.662014 96.914 -13.2496
14.768262 96.910 -13.3179
14.875278 96.907 -13.3870
14.983070 96.904 -13.4569
15.091644 96.901 -13.5281
15.201005 96.897 -13.5999
15.311157 96.894 -13.6716
15.422109 96.891 -13.7439
15.533863 96.888 -13.8175
15.646428 96.884 -13.8920
15.759809 96.880 -13.9671
15.874010 96.877 -14.0429
15.989040 96.874 -14.1195
16.104904 96.871 -14.1969
16.221605 96.868 -14.2755
16.339155 96.864 -14.3549
16.457554 96.861 -14.4345
16.576813 96.858 -14.5149
16.696936 96.854 -14.5965
16.817928 96.851 -14.6789
16.939798 96.848 -14.7620
17.062551 96.845 -14.8459
17.186193 96.842 -14.9310
17.310732 96.838 -15.0169
17.436172 96.834 -15.1035
17.562521 96.831 -15.1909
17.689787 96.828 -15.2794
17.817974 96.825 -15.3689
17.947090 96.822 -15.4595
18.077143 96.818 -15.5509
18.208138 96.815 -15.6429
18.340080 96.812 -15.7359
18.472980 96.809 -15.8304
18.606844 96.805 -15.9259
18.741676 96.802 -16.0219
18.877487 96.799 -16.1189
19.014280 96.796 -16.2174
19.152065 96.792 -16.3169
19.290850 96.789 -16.4169
19.430639 96.786 -16.5179
19.571442 96.783 -16.6205
19.713264 96.779 -16.7239
19.856115 96.775 -16.8276
20.000000 96.772 -16.9319
20.144928 96.769 -17.0367
20.290907 96.766 -17.1419
20.437943 96.763 -17.2472
20.586044 96.760 -17.3529
20.735220 96.757 -17.4593
20.885475 96.755 -17.5659
21.036821 96.753 -17.6721
21.189262 96.751 -17.7789
21.342808 96.750 -17.8866
21.497467 96.750 -17.9959
21.653246 96.750 -18.1063
21.810154 96.752 -18.2208
21.968201 96.755 -18.3413
22.127390 96.760 -18.4708
22.287735 96.766 -18.6136
22.449242 96.772 -18.7689
22.611917 96.777 -18.9377
22.775772 96.782 -19.1198
22.940815 96.787 -19.3156
23.107054 96.791 -19.5237
23.274498 96.792 -19.7447
23.443153 96.791 -19.9727
23.613033 96.787 -20.2017
23.784142 96.781 -20.4318
23.956491 96.775 -20.6610
24.130091 96.767 -20.8887
24.304947 96.757 -21.1139
24.481071 96.746 -21.3357
24.658470 96.735 -21.5516
24.837156 96.724 -21.7657
25.017136 96.715 -21.9814
25.198421 96.705 -22.1988
25.381020 96.694 -22.4198
25.564941 96.682 -22.6418
25.750195 96.670 -22.8620
25.936790 96.658 -23.0827
26.124741 96.646 -23.3059
26.314051 96.634 -23.5307
26.504732 96.621 -23.7563
26.696796 96.609 -23.9847
26.890253 96.598 -24.2160
27.085112 96.587 -24.4547
27.281382 96.577 -24.7051
27.479073 96.566 -24.9676
27.678198 96.555 -25.2444
27.878765 96.543 -25.5346
28.080786 96.529 -25.8393
28.284271 96.513 -26.1556
28.489231 96.493 -26.4827
28.695675 96.470 -26.8155
28.903616 96.443 -27.1501
29.113064 96.412 -27.4815
29.324028 96.377 -27.8041
29.536524 96.340 -28.1166
29.750557 96.301 -28.4161
29.966141 96.260 -28.7027
30.183289 96.218 -28.9748
30.402010 96.175 -29.2347
30.622314 96.132 -29.4830
30.844217 96.089 -29.7227
31.067726 96.047 -29.9570
31.292856 96.005 -30.1867
31.519617 95.963 -30.4128
31.748020 95.921 -30.6377
31.978081 95.880 -30.8638
32.209808 95.838 -31.0917
32.443211 95.795 -31.3234
32.678310 95.751 -31.5567
32.915108 95.705 -31.7907
33.153625 95.657 -32.0237
33.393871 95.608 -32.2541
33.635857 95.557 -32.4807
33.879597 95.504 -32.7016
34.125103 95.450 -32.9167
34.372387 95.394 -33.1253
34.621464 95.337 -33.3267
34.872345 95.277 -33.5205
35.125042 95.216 -33.7048
35.379574 95.154 -33.8776
35.635948 95.090 -34.0388
35.894180 95.025 -34.1881
36.154285 94.959 -34.3248
36.416275 94.892 -34.4488
36.680161 94.823 -34.5588
36.945961 94.754 -34.6544
37.213688 94.683 -34.7339
37.483353 94.612 -34.7960
37.754974 94.540 -34.8399
38.028561 94.468 -34.8651
38.304131 94.396 -34.8700
38.581699 94.323 -34.8532
38.861279 94.251 -34.8141
39.142883 94.180 -34.7509
39.426529 94.111 -34.6661
39.712231 94.044 -34.5610
40.000000 93.980 -34.4382
40.289856 93.919 -34.2998
40.581814 93.861 -34.1492
40.875885 93.807 -33.9896
41.172089 93.756 -33.8233
41.470440 93.708 -33.6533
41.770950 93.663 -33.4803
42.073643 93.621 -33.3053
42.378525 93.582 -33.1302
42.685616 93.547 -32.9570
42.994934 93.515 -32.7872
43.306492 93.485 -32.6229
43.620308 93.458 -32.4652
43.936401 93.435 -32.3147
44.254780 93.415 -32.1762
44.575470 93.398 -32.0544
44.898483 93.384 -31.9502
45.223835 93.372 -31.8661
45.551544 93.361 -31.8021
45.881630 93.352 -31.7570
46.214108 93.345 -31.7370
46.548996 93.340 -31.7478
46.886307 93.336 -31.7899
47.226067 93.330 -31.8663
47.568283 93.323 -31.9748
47.912983 93.315 -32.1137
48.260181 93.304 -32.2847
48.609894 93.290 -32.4910
48.962143 93.272 -32.7266
49.316940 93.247 -32.9885
49.674313 93.216 -33.2705
50.034271 93.179 -33.5671
50.396843 93.135 -33.8745
50.762039 93.084 -34.1894
51.129883 93.025 -34.5055
51.500389 92.958 -34.8173
51.873581 92.883 -35.1185
52.249481 92.800 -35.4032
52.628101 92.709 -35.6636
53.009464 92.609 -35.8929
53.393593 92.500 -36.0827
53.780506 92.385 -36.2241
54.170223 92.263 -36.3119
54.562763 92.136 -36.3405
54.958145 92.003 -36.3031
55.356396 91.867 -36.1911
55.757530 91.728 -36.0044
56.161572 91.591 -35.7383
56.568542 91.455 -35.3986
56.978462 91.324 -34.9879
57.391350 91.197 -34.5109
57.807232 91.076 -33.9703
58.226128 90.963 -33.3751
58.648056 90.860 -32.7320
59.073048 90.766 -32.0512
59.501114 90.681 -31.3434
59.932281 90.604 -30.6123
60.366577 90.536 -29.8640
60.804020 90.476 -29.1013
61.244629 90.424 -28.3286
61.688435 90.380 -27.5473
62.135452 90.343 -26.7604
62.585712 90.312 -25.9684
63.039234 90.288 -25.1718
63.496040 90.272 -24.3734
63.956161 90.264 -23.5743
64.419617 90.263 -22.7794
64.886421 90.271 -21.9928
65.356621 90.286 -21.2183
65.830215 90.309 -20.4610
66.307251 90.340 -19.7224
66.787743 90.377 -19.0051
67.271713 90.420 -18.3123
67.759193 90.471 -17.6466
68.250206 90.528 -17.0121
68.744774 90.591 -16.4136
69.242928 90.660 -15.8520
69.744690 90.733 -15.3288
70.250084 90.811 -14.8479
70.759148 90.893 -14.4129
71.271896 90.979 -14.0257
71.788361 91.067 -13.6898
72.308571 91.156 -13.4035
72.832550 91.245 -13.1668
73.360321 91.335 -12.9783
73.891922 91.423 -12.8385
74.427376 91.510 -12.7411
74.966705 91.593 -12.6813
75.509949 91.674 -12.6560
76.057121 91.753 -12.6610
76.608261 91.830 -12.6949
77.163399 91.903 -12.7562
77.722557 91.974 -12.8408
78.285767 92.042 -12.9440
78.853058 92.108 -13.0667
79.424461 92.173 -13.2081
80.000000 92.237 -13.3697
80.579712 92.299 -13.5519
81.163628 92.360 -13.7566
81.751770 92.420 -13.9852
82.344177 92.478 -14.2395
82.940880 92.534 -14.5225
83.541901 92.586 -14.8314
84.147285 92.634 -15.1650
84.757050 92.677 -15.5203
85.371231 92.716 -15.8958
85.989868 92.750 -16.2862
86.612984 92.778 -16.6876
87.240616 92.800 -17.0942
87.872803 92.817 -17.4997
88.509560 92.830 -17.9022
89.150940 92.838 -18.2981
89.796967 92.842 -18.6862
90.447670 92.842 -19.0641
91.103088 92.840 -19.4312
91.763260 92.836 -19.7858
92.428215 92.829 -20.1293
93.097992 92.821 -20.4627
93.772614 92.811 -20.7853
94.452133 92.799 -21.0964
95.136566 92.787 -21.3974
95.825966 92.775 -21.6889
96.520363 92.762 -21.9724
97.219788 92.749 -22.2488
97.924286 92.735 -22.5194
98.633881 92.722 -22.7848
99.348625 92.709 -23.0485
100.068542 92.698 -23.3133
100.793686 92.687 -23.5813
101.524078 92.675 -23.8562
102.259766 92.662 -24.1363
103.000778 92.649 -24.4206
103.747162 92.636 -24.7114
104.498962 92.622 -25.0117
105.256203 92.607 -25.3194
106.018929 92.589 -25.6341
106.787186 92.568 -25.9534
107.561012 92.546 -26.2744
108.340446 92.523 -26.5975
109.125526 92.497 -26.9222
109.916290 92.469 -27.2474
110.712791 92.439 -27.5722
111.515060 92.406 -27.8953
112.323143 92.371 -28.2156
113.137085 92.333 -28.5313
113.956924 92.294 -28.8402
114.782700 92.252 -29.1422
115.614464 92.209 -29.4367
116.452255 92.164 -29.7235
117.296112 92.118 -30.0022
118.146095 92.070 -30.2724
119.002228 92.021 -30.5332
119.864563 91.971 -30.7863
120.733154 91.921 -31.0331
121.608040 91.869 -31.2735
122.489258 91.816 -31.5083
123.376869 91.762 -31.7365
124.270905 91.707 -31.9572
125.171425 91.650 -32.1696
126.078468 91.592 -32.3728
126.992081 91.533 -32.5666
127.912323 91.474 -32.7503
128.839233 91.413 -32.9247
129.772842 91.352 -33.0899
130.713242 91.290 -33.2467
131.660431 91.229 -33.3950
132.614502 91.167 -33.5366
133.575485 91.105 -33.6735
134.543427 91.043 -33.8048
135.518387 90.980 -33.9302
136.500412 90.915 -34.0498
137.489548 90.850 -34.1639
138.485855 90.784 -34.2717
139.489380 90.717 -34.3735
140.500168 90.649 -34.4668
141.518295 90.579 -34.5499
142.543793 90.507 -34.6218
143.576721 90.436 -34.6811
144.617142 90.363 -34.7269
145.665100 90.289 -34.7579
146.720642 90.214 -34.7740
147.783844 90.140 -34.7736
148.854752 90.066 -34.7591
149.933411 89.992 -34.7322
151.019897 89.919 -34.6931
152.114243 89.847 -34.6422
153.216522 89.775 -34.5802
154.326797 89.703 -34.5078
155.445114 89.632 -34.4252
156.571533 89.562 -34.3327
157.706116 89.492 -34.2302
158.848923 89.423 -34.1183
160.000000 89.354 -33.9963
161.159424 89.286 -33.8631
162.327255 89.219 -33.7203
163.503540 89.154 -33.5690
164.688354 89.090 -33.4103
165.881760 89.027 -33.2454
167.083801 88.965 -33.0755
168.294571 88.905 -32.9014
169.514099 88.846 -32.7254
170.742462 88.788 -32.5507
171.979736 88.731 -32.3755
173.225967 88.674 -32.1993
174.481232 88.617 -32.0214
175.745605 88.560 -31.8411
177.019119 88.503 -31.6575
178.301880 88.446 -31.4705
179.593933 88.389 -31.2775
180.895340 88.331 -31.0754
182.206177 88.272 -30.8645
183.526520 88.215 -30.6436
184.856430 88.158 -30.4145
186.195984 88.103 -30.1782
187.545227 88.048 -29.9356
188.904266 87.995 -29.6875
190.273132 87.942 -29.4356
191.651932 87.891 -29.1824
193.040726 87.840 -28.9257
194.439575 87.789 -28.6644
195.848572 87.738 -28.3978
197.267761 87.688 -28.1244
198.697250 87.638 -27.8447
200.137085 87.588 -27.5596
201.587372 87.539 -27.2667
203.048157 87.490 -26.9633
204.519531 87.442 -26.6509
206.001556 87.396 -26.3303
207.494324 87.350 -26.0018
208.997925 87.306 -25.6667
210.512405 87.262 -25.3228
212.037857 87.220 -24.9678
213.574371 87.179 -24.6039
215.122025 87.141 -24.2320
216.680893 87.106 -23.8540
218.251053 87.073 -23.4717
219.832581 87.042 -23.0861
221.425583 87.014 -22.6974
223.030121 86.989 -22.3100
224.646286 86.968 -21.9277
226.274170 86.950 -21.5530
227.913849 86.934 -21.1891
229.565399 86.921 -20.8379
231.228928 86.910 -20.5027
232.904510 86.899 -20.1820
234.592224 86.888 -19.8757
236.292191 86.877 -19.5828
238.004456 86.867 -19.3024
239.729126 86.857 -19.0337
241.466309 86.846 -18.7764
243.216080 86.833 -18.5277
244.978516 86.819 -18.2849
246.753738 86.803 -18.0467
248.541809 86.787 -17.8111
250.342850 86.770 -17.5767
252.156937 86.751 -17.3418
253.984161 86.731 -17.1046
255.824646 86.710 -16.8628
257.678467 86.688 -16.6166
259.545685 86.667 -16.3662
261.426483 86.645 -16.1106
263.320862 86.622 -15.8496
265.229004 86.599 -15.5818
267.150970 86.576 -15.3052
269.086853 86.553 -15.0218
271.036774 86.532 -14.7326
273.000824 86.511 -14.4389
274.979095 86.491 -14.1426
276.971710 86.471 -13.8429
278.978760 86.452 -13.5394
281.000336 86.433 -13.2328
283.036591 86.416 -12.9237
285.087585 86.399 -12.6129
287.153442 86.383 -12.3020
289.234283 86.367 -11.9898
291.330200 86.351 -11.6764
293.441284 86.335 -11.3609
295.567688 86.319 -11.0426
297.709503 86.304 -10.7209
299.866821 86.288 -10.3949
302.039795 86.273 -10.0640
304.228485 86.258 -9.7271
306.433044 86.243 -9.3840
308.653595 86.229 -9.0344
310.890228 86.216 -8.6780
313.143066 86.203 -8.3147
315.412231 86.191 -7.9431
317.697845 86.180 -7.5607
320.000000 86.171 -7.1702
322.318848 86.164 -6.7726
324.654510 86.159 -6.3693
327.007080 86.156 -5.9610
329.376709 86.155 -5.5503
331.763519 86.158 -5.1397
334.167603 86.163 -4.7303
336.589142 86.169 -4.3232
339.028198 86.178 -3.9202
341.484924 86.190 -3.5231
343.959473 86.204 -3.1331
346.451935 86.219 -2.7523
348.962463 86.236 -2.3800
351.491211 86.253 -2.0163
354.038239 86.272 -1.6610
356.603760 86.292 -1.3140
359.187866 86.313 -0.9750
361.790680 86.335 -0.6436
364.412354 86.357 -0.3209
367.053040 86.381 -0.0081
369.712860 86.405 0.2961
372.391968 86.428 0.5921
375.090454 86.452 0.8812
377.808533 86.476 1.1646
380.546265 86.501 1.4422
383.303864 86.525 1.7141
386.081451 86.550 1.9802
388.879150 86.576 2.2410
391.697144 86.602 2.4952
394.535522 86.628 2.7415
397.394501 86.654 2.9813
400.274170 86.680 3.2162
403.174744 86.706 3.4443
406.096313 86.733 3.6641
409.039062 86.760 3.8764
412.003113 86.785 4.0802
414.988647 86.810 4.2794
417.995850 86.833 4.4773
421.024811 86.855 4.6744
424.075714 86.877 4.8714
427.148743 86.899 5.0704
430.244049 86.919 5.2739
433.361786 86.940 5.4813
436.502106 86.962 5.6939
439.665161 86.985 5.9083
442.851166 87.009 6.1214
446.060242 87.034 6.3333
449.292572 87.059 6.5440
452.548340 87.086 6.7514
455.827698 87.115 6.9536
459.130798 87.144 7.1494
462.457855 87.173 7.3365
465.809021 87.202 7.5164
469.184448 87.231 7.6893
472.584381 87.260 7.8565
476.008911 87.288 8.0187
479.458252 87.315 8.1785
482.932617 87.341 8.3384
486.432159 87.367 8.4995
489.957031 87.392 8.6638
493.507477 87.418 8.8315
497.083618 87.444 9.0039
500.685699 87.471 9.1794
504.313873 87.500 9.3583
507.968323 87.530 9.5364
511.649292 87.563 9.7109
515.356934 87.597 9.8785
519.091370 87.632 10.0346
522.852966 87.669 10.1795
526.641724 87.706 10.3123
530.458008 87.744 10.4326
534.301941 87.781 10.5394
538.173706 87.817 10.6347
542.073547 87.852 10.7197
546.001648 87.885 10.7967
549.958191 87.917 10.8675
553.943420 87.947 10.9348
557.957520 87.975 11.0010
562.000671 88.001 11.0698
566.073181 88.025 11.1447
570.175171 88.048 11.2277
574.306885 88.070 11.3212
578.468567 88.092 11.4276
582.660400 88.113 11.5507
586.882568 88.135 11.6885
591.135376 88.160 11.8423
595.419006 88.188 12.0054
599.733643 88.220 12.1730
604.079590 88.256 12.3414
608.456970 88.294 12.5079
612.866089 88.337 12.6655
617.307190 88.385 12.8077
621.780457 88.436 12.9296
626.286133 88.489 13.0239
630.824463 88.544 13.0918
635.395691 88.599 13.1323
640.000000 88.654 13.1460
644.637695 88.708 13.1318
649.309021 88.760 13.0932
654.014160 88.809 13.0313
658.753418 88.856 12.9513
663.527039 88.899 12.8580
668.335205 88.939 12.7534
673.178284 88.976 12.6397
678.056396 89.010 12.5214
682.969849 89.040 12.4027
687.918945 89.067 12.2864
692.903870 89.092 12.1770
697.924927 89.116 12.0734
702.982422 89.138 11.9752
708.076477 89.158 11.8843
713.207520 89.177 11.8030
718.375732 89.195 11.7293
723.581360 89.214 11.6624
728.824707 89.234 11.6002
734.106079 89.253 11.5404
739.425720 89.272 11.4832
744.783936 89.291 11.4290
750.180908 89.311 11.3752
755.617065 89.331 11.3191
761.092529 89.352 11.2612
766.607727 89.371 11.2009
772.162903 89.390 11.1392
777.758301 89.409 11.0775
783.394287 89.428 11.0142
789.071045 89.447 10.9476
794.789001 89.465 10.8792
800.548340 89.481 10.8104
806.349487 89.497 10.7412
812.192627 89.513 10.6729
818.078125 89.529 10.6043
824.006226 89.544 10.5337
829.977295 89.558 10.4633
835.991699 89.572 10.3949
842.049622 89.585 10.3272
848.151428 89.598 10.2591
854.297485 89.610 10.1922
860.488098 89.621 10.1280
866.723572 89.632 10.0662
873.004211 89.643 10.0071
879.330322 89.653 9.9502
885.702332 89.663 9.8944
892.120483 89.673 9.8412
