* Measurement data measured by REW V5.20.13
* Source: C:\Users\kurin\Desktop\Targets and Curves\Resolve\Img\Files\Focal_Clear_5128_SPL.txt
* Format: Comma/Tab/Space delimited data
* Dated: Aug 14, 2023 3:48:21 PM
* REW Settings:
*  C-weighting compensation: Off
*  Target level: 75.0 dB
* Note: ; Measurement imported from C:\Users\kurin\Desktop\Targets and Curves\Resolve\Img\Files\Focal_Clear_5128_SPL.txt Format: Comma/Tab/Space delimited data 623 values loaded, 5 Hz to 39,792 Hz log spaced 
* Measurement: Focal_Clear_5128_SPL
* Smoothing: 1/48 octave
* Frequency Step: 1/96 octave
* Start Frequency: 5.000 Hz
*
* Freq(Hz) SPL(dB) Phase(degrees)
5.000000 78.162 54.5040
5.036232 78.180 54.4895
5.072727 78.200 54.4740
5.109486 78.223 54.4563
5.146511 78.249 54.4360
5.183805 78.281 54.4113
5.221369 78.315 54.3850
5.259205 78.351 54.3599
5.297316 78.388 54.3340
5.335702 78.428 54.3058
5.374367 78.469 54.2770
5.413311 78.509 54.2489
5.452538 78.550 54.2210
5.492050 78.591 54.1931
5.531847 78.631 54.1650
5.571934 78.671 54.1366
5.612310 78.711 54.1080
5.652979 78.751 54.0791
5.693943 78.792 54.0500
5.735204 78.832 54.0206
5.776763 78.873 53.9910
5.818624 78.914 53.9616
5.860788 78.954 53.9320
5.903258 78.994 53.9021
5.946035 79.034 53.8720
5.989123 79.074 53.8416
6.032523 79.115 53.8110
6.076237 79.155 53.7806
6.120268 79.196 53.7500
6.164618 79.236 53.7186
6.209289 79.277 53.6870
6.254284 79.318 53.6556
6.299605 79.358 53.6240
6.345255 79.398 53.5916
6.391235 79.438 53.5590
6.437549 79.478 53.5266
6.484198 79.519 53.4940
6.531185 79.559 53.4611
6.578513 79.600 53.4280
6.626183 79.640 53.3946
6.674199 79.681 53.3610
6.722563 79.722 53.3271
6.771278 79.762 53.2930
6.820345 79.802 53.2586
6.869768 79.842 53.2240
6.919549 79.882 53.1891
6.969691 79.923 53.1540
7.020196 79.963 53.1186
7.071068 80.004 53.0830
7.122308 80.045 53.0472
7.173919 80.085 53.0110
7.225904 80.125 52.9741
7.278266 80.165 52.9370
7.331007 80.205 52.9001
7.384131 80.246 52.8630
7.437639 80.286 52.8256
7.491535 80.327 52.7880
7.545822 80.367 52.7502
7.600502 80.408 52.7120
7.655579 80.449 52.6731
7.711054 80.489 52.6340
7.766932 80.529 52.5951
7.823214 80.569 52.5560
7.879904 80.609 52.5162
7.937005 80.650 52.4760
7.994520 80.690 52.4356
8.052452 80.731 52.3950
8.110803 80.771 52.3542
8.169578 80.812 52.3130
8.228777 80.853 52.2711
8.288406 80.893 52.2290
8.348468 80.933 52.1871
8.408964 80.973 52.1450
8.469899 81.013 52.1023
8.531276 81.054 52.0590
8.593097 81.094 52.0151
8.655366 81.135 51.9710
8.718086 81.176 51.9271
8.781260 81.216 51.8830
8.844893 81.256 51.8382
8.908987 81.296 51.7930
8.973545 81.336 51.7477
9.038571 81.377 51.7020
9.104069 81.417 51.6557
9.170040 81.458 51.6090
9.236490 81.498 51.5622
9.303422 81.539 51.5150
9.370838 81.580 51.4672
9.438744 81.620 51.4190
9.507140 81.660 51.3706
9.576033 81.700 51.3220
9.645425 81.740 51.2732
9.715320 81.781 51.2240
9.785721 81.821 51.1743
9.856632 81.862 51.1240
9.928058 81.902 51.0732
10.000000 81.943 51.0220
10.072464 81.984 50.9707
10.145453 82.024 50.9191
10.218971 82.064 50.8667
10.293022 82.104 50.8140
10.367610 82.144 50.7612
10.442738 82.185 50.7080
10.518411 82.225 50.6543
10.594631 82.266 50.6000
10.671404 82.306 50.5452
10.748734 82.347 50.4900
10.826623 82.388 50.4348
10.905077 82.428 50.3790
10.984100 82.468 50.3223
11.063695 82.508 50.2650
11.143867 82.548 50.2077
11.224621 82.589 50.1500
11.305959 82.629 50.0918
11.387886 82.670 50.0330
11.470407 82.711 49.9737
11.553527 82.751 49.9140
11.637249 82.791 49.8543
11.721577 82.831 49.7941
11.806517 82.871 49.7329
11.892071 82.912 49.6711
11.978246 82.952 49.6088
12.065045 82.993 49.5460
12.152473 83.033 49.4827
12.240536 83.074 49.4190
12.329235 83.115 49.3553
12.418578 83.155 49.2911
12.508568 83.195 49.2259
12.599211 83.235 49.1600
12.690510 83.275 49.0933
12.782471 83.316 49.0261
12.875097 83.356 48.9588
12.968395 83.397 48.8910
13.062370 83.437 48.8223
13.157025 83.478 48.7530
13.252366 83.519 48.6833
13.348398 83.559 48.6130
13.445127 83.599 48.5424
13.542556 83.639 48.4711
13.640691 83.679 48.3989
13.739536 83.720 48.3260
13.839099 83.760 48.2529
13.939383 83.801 48.1791
14.040393 83.842 48.1044
14.142136 83.882 48.0290
14.244616 83.922 47.9534
14.347837 83.962 47.8770
14.451808 84.002 47.7994
14.556532 84.043 47.7210
14.662014 84.083 47.6424
14.768262 84.124 47.5631
14.875278 84.164 47.4830
14.983070 84.205 47.4021
15.091644 84.246 47.3204
15.201005 84.286 47.2381
15.311157 84.326 47.1550
15.422109 84.366 47.0711
15.533863 84.406 46.9859
15.646428 84.447 46.9001
15.759809 84.487 46.8139
15.874010 84.528 46.7271
15.989040 84.568 46.6391
16.104904 84.609 46.5501
16.221605 84.650 46.4600
16.339155 84.690 46.3691
16.457554 84.730 46.2775
16.576813 84.770 46.1851
16.696936 84.810 46.0915
16.817928 84.851 45.9971
16.939798 84.891 45.9021
17.062551 84.932 45.8061
17.186193 84.973 45.7087
17.310732 85.013 45.6101
17.436172 85.053 45.5106
17.562521 85.093 45.4101
17.689787 85.133 45.3087
17.817974 85.174 45.2061
17.947090 85.214 45.1017
18.077143 85.255 44.9961
18.208138 85.295 44.8897
18.340080 85.336 44.7821
18.472980 85.377 44.6729
18.606844 85.417 44.5621
18.741676 85.457 44.4495
18.877487 85.497 44.3351
19.014280 85.537 44.2188
19.152065 85.578 44.1001
19.290850 85.618 43.9789
19.430639 85.658 43.8551
19.571442 85.698 43.7281
19.713264 85.738 43.5992
19.856115 85.776 43.4687
20.000000 85.814 43.3381
20.144928 85.851 43.2085
20.290907 85.888 43.0811
20.437943 85.924 42.9577
20.586044 85.960 42.8381
20.735220 85.997 42.7232
20.885475 86.034 42.6111
21.036821 86.072 42.5001
21.189262 86.110 42.3901
21.342808 86.148 42.2817
21.497467 86.188 42.1721
21.653246 86.229 42.0594
21.810154 86.272 41.9422
21.968201 86.315 41.8183
22.127390 86.359 41.6881
22.287735 86.402 41.5517
22.449242 86.446 41.4081
22.611917 86.490 41.2570
22.775772 86.535 41.0972
22.940815 86.579 40.9270
23.107054 86.622 40.7472
23.274498 86.665 40.5581
23.443153 86.707 40.3603
23.613033 86.747 40.1537
23.784142 86.785 39.9412
23.956491 86.822 39.7249
24.130091 86.857 39.5063
24.304947 86.890 39.2860
24.481071 86.920 39.0683
24.658470 86.948 38.8573
24.837156 86.974 38.6543
25.017136 87.000 38.4620
25.198421 87.025 38.2792
25.381020 87.050 38.1063
25.564941 87.076 37.9412
25.750195 87.103 37.7828
25.936790 87.130 37.6282
26.124741 87.159 37.4741
26.314051 87.188 37.3202
26.504732 87.217 37.1656
26.696796 87.247 37.0092
26.890253 87.278 36.8496
27.085112 87.308 36.6872
27.281382 87.337 36.5207
27.479073 87.366 36.3532
27.678198 87.394 36.1878
27.878765 87.422 36.0232
28.080786 87.450 35.8599
28.284271 87.479 35.6962
28.489231 87.507 35.5303
28.695675 87.535 35.3632
28.903616 87.563 35.1952
29.113064 87.590 35.0272
29.324028 87.616 34.8597
29.536524 87.642 34.6942
29.750557 87.667 34.5322
29.966141 87.691 34.3742
30.183289 87.715 34.2212
30.402010 87.740 34.0732
30.622314 87.765 33.9306
30.844217 87.790 33.7922
31.067726 87.816 33.6572
31.292856 87.843 33.5242
31.519617 87.871 33.3914
31.748020 87.900 33.2582
31.978081 87.929 33.1232
32.209808 87.959 32.9872
32.443211 87.989 32.8501
32.678310 88.020 32.7122
32.915108 88.051 32.5739
33.153625 88.083 32.4342
33.393871 88.117 32.2934
33.635857 88.152 32.1482
33.879597 88.189 31.9962
34.125103 88.227 31.8342
34.372387 88.267 31.6593
34.621464 88.308 31.4683
34.872345 88.349 31.2567
35.125042 88.390 31.0253
35.379574 88.429 30.7722
35.635948 88.466 30.5013
35.894180 88.500 30.2135
36.154285 88.530 29.9154
36.416275 88.556 29.6123
36.680161 88.577 29.3105
36.945961 88.594 29.0171
37.213688 88.608 28.7344
37.483353 88.621 28.4673
37.754974 88.632 28.2144
38.028561 88.642 27.9766
38.304131 88.651 27.7523
38.581699 88.662 27.5411
38.861279 88.674 27.3393
39.142883 88.686 27.1433
39.426529 88.699 26.9523
39.712231 88.712 26.7638
40.000000 88.726 26.5783
40.289856 88.740 26.3959
40.581814 88.754 26.2153
40.875885 88.769 26.0349
41.172089 88.785 25.8553
41.470440 88.799 25.6765
41.770950 88.814 25.4983
42.073643 88.830 25.3207
42.378525 88.847 25.1423
42.685616 88.863 24.9616
42.994934 88.879 24.7793
43.306492 88.895 24.5951
43.620308 88.911 24.4103
43.936401 88.926 24.2259
44.254780 88.941 24.0413
44.575470 88.957 23.8561
44.898483 88.972 23.6703
45.223835 88.987 23.4838
45.551544 89.001 23.2963
45.881630 89.016 23.1075
46.214108 89.031 22.9173
46.548996 89.045 22.7245
46.886307 89.059 22.5313
47.226067 89.071 22.3396
47.568283 89.083 22.1493
47.912983 89.095 21.9614
48.260181 89.108 21.7743
48.609894 89.120 21.5869
48.962143 89.132 21.3993
49.316940 89.143 21.2120
49.674313 89.155 21.0233
50.034271 89.168 20.8316
50.396843 89.180 20.6373
50.762039 89.190 20.4391
51.129883 89.199 20.2403
51.500389 89.207 20.0435
51.873581 89.215 19.8493
52.249481 89.221 19.6590
52.628101 89.226 19.4743
53.009464 89.230 19.2977
53.393593 89.234 19.1283
53.780506 89.239 18.9667
54.170223 89.245 18.8103
54.562763 89.251 18.6565
54.958145 89.258 18.5052
55.356396 89.265 18.3561
55.757530 89.273 18.2072
56.161572 89.282 18.0569
56.568542 89.292 17.9043
56.978462 89.301 17.7468
57.391350 89.310 17.5873
57.807232 89.318 17.4277
58.226128 89.326 17.2683
58.648056 89.333 17.1103
59.073048 89.341 16.9523
59.501114 89.349 16.7933
59.932281 89.358 16.6333
60.366577 89.366 16.4713
60.804020 89.373 16.3093
61.244629 89.380 16.1488
61.688435 89.386 15.9893
62.135452 89.393 15.8303
62.585712 89.399 15.6723
63.039234 89.405 15.5150
63.496040 89.410 15.3593
63.956161 89.416 15.2063
64.419617 89.422 15.0543
64.886421 89.428 14.9016
65.356621 89.434 14.7483
65.830215 89.440 14.5938
66.307251 89.446 14.4383
66.787743 89.452 14.2816
67.271713 89.458 14.1243
67.759193 89.462 13.9659
68.250206 89.466 13.8093
68.744774 89.469 13.6572
69.242928 89.471 13.5103
69.744690 89.473 13.3706
70.250084 89.475 13.2363
70.759148 89.478 13.1071
71.271896 89.483 12.9802
71.788361 89.489 12.8527
72.308571 89.496 12.7242
72.832550 89.503 12.5942
73.360321 89.510 12.4613
73.891922 89.519 12.3244
74.427376 89.528 12.1823
74.966705 89.537 12.0323
75.509949 89.546 11.8763
76.057121 89.554 11.7144
76.608261 89.561 11.5483
77.163399 89.568 11.3797
77.722557 89.574 11.2084
78.285767 89.579 11.0340
78.853058 89.583 10.8584
79.424461 89.586 10.6829
80.000000 89.589 10.5083
80.579712 89.590 10.3361
81.163628 89.591 10.1663
81.751770 89.592 9.9999
82.344177 89.592 9.8363
82.940880 89.592 9.6758
83.541901 89.592 9.5173
84.147285 89.592 9.3603
84.757050 89.592 9.2043
85.371231 89.592 9.0489
85.989868 89.592 8.8933
86.612984 89.592 8.7363
87.240616 89.592 8.5783
87.872803 89.591 8.4194
88.509560 89.590 8.2593
89.150940 89.589 8.0969
89.796967 89.587 7.9343
90.447670 89.584 7.7727
91.103088 89.579 7.6143
91.763260 89.573 7.4621
92.428215 89.567 7.3153
93.097992 89.562 7.1744
93.772614 89.556 7.0393
94.452133 89.550 6.9103
95.136566 89.544 6.7863
95.825966 89.540 6.6669
96.520363 89.536 6.5493
97.219788 89.534 6.4304
97.924286 89.532 6.3093
98.633881 89.531 6.1835
99.348625 89.531 6.0533
100.068542 89.530 5.9174
100.793686 89.528 5.7774
101.524078 89.526 5.6334
102.259766 89.523 5.4874
103.000778 89.519 5.3408
103.747162 89.514 5.1953
104.498962 89.508 5.0531
105.256203 89.502 4.9133
106.018929 89.496 4.7758
106.787186 89.490 4.6403
107.561012 89.483 4.5064
108.340446 89.476 4.3742
109.125526 89.470 4.2437
109.916290 89.463 4.1142
110.712791 89.456 3.9852
111.515060 89.449 3.8563
112.323143 89.442 3.7269
113.137085 89.434 3.5973
113.956924 89.426 3.4669
114.782700 89.418 3.3373
115.614464 89.409 3.2103
116.452255 89.399 3.0852
117.296112 89.390 2.9626
118.146095 89.381 2.8413
119.002228 89.371 2.7195
119.864563 89.360 2.5993
120.733154 89.349 2.4825
121.608040 89.337 2.3682
122.489258 89.327 2.2569
123.376869 89.316 2.1473
124.270905 89.304 2.0376
125.171425 89.292 1.9302
126.078468 89.280 1.8273
126.992081 89.267 1.7272
127.912323 89.255 1.6285
128.839233 89.242 1.5322
129.772842 89.228 1.4392
130.713242 89.215 1.3492
131.660431 89.203 1.2622
132.614502 89.191 1.1772
133.575485 89.179 1.0930
134.543427 89.166 1.0102
135.518387 89.153 0.9291
136.500412 89.140 0.8492
137.489548 89.128 0.7696
138.485855 89.115 0.6912
139.489380 89.102 0.6144
140.500168 89.088 0.5402
141.518295 89.075 0.4699
142.543793 89.061 0.4032
143.576721 89.047 0.3406
144.617142 89.034 0.2801
145.665100 89.022 0.2202
146.720642 89.010 0.1602
147.783844 88.998 0.0984
148.854752 88.986 0.0362
149.933411 88.974 -0.0256
151.019897 88.962 -0.0878
152.114243 88.950 -0.1517
153.216522 88.938 -0.2158
154.326797 88.924 -0.2799
155.445114 88.910 -0.3419
156.571533 88.895 -0.3992
157.706116 88.880 -0.4529
158.848923 88.866 -0.5027
160.000000 88.851 -0.5489
161.159424 88.836 -0.5917
162.327255 88.821 -0.6309
163.503540 88.807 -0.6657
164.688354 88.793 -0.6989
165.881760 88.781 -0.7329
167.083801 88.769 -0.7679
168.294571 88.757 -0.8056
169.514099 88.744 -0.8449
170.742462 88.731 -0.8853
171.979736 88.718 -0.9269
173.225967 88.705 -0.9707
174.481232 88.692 -1.0139
175.745605 88.676 -1.0548
177.019119 88.659 -1.0909
178.301880 88.643 -1.1180
179.593933 88.627 -1.1399
180.895340 88.612 -1.1595
182.206177 88.597 -1.1760
183.526520 88.581 -1.1895
184.856430 88.566 -1.2010
186.195984 88.553 -1.2106
187.545227 88.540 -1.2210
188.904266 88.527 -1.2355
190.273132 88.514 -1.2520
191.651932 88.500 -1.2702
193.040726 88.485 -1.2880
194.439575 88.470 -1.3032
195.848572 88.454 -1.3150
197.267761 88.437 -1.3219
198.697250 88.420 -1.3230
200.137085 88.403 -1.3160
201.587372 88.386 -1.3040
203.048157 88.371 -1.2895
204.519531 88.356 -1.2721
206.001556 88.340 -1.2524
207.494324 88.325 -1.2301
208.997925 88.312 -1.2039
210.512405 88.299 -1.1771
212.037857 88.287 -1.1530
213.574371 88.274 -1.1291
215.122025 88.261 -1.1034
216.680893 88.248 -1.0771
218.251053 88.236 -1.0505
219.832581 88.224 -1.0241
221.425583 88.212 -0.9993
223.030121 88.200 -0.9741
224.646286 88.187 -0.9464
226.274170 88.175 -0.9181
227.913849 88.164 -0.8909
229.565399 88.152 -0.8631
231.228928 88.139 -0.8330
232.904510 88.126 -0.8011
234.592224 88.114 -0.7671
236.292191 88.103 -0.7321
238.004456 88.091 -0.6977
239.729126 88.079 -0.6621
241.466309 88.066 -0.6234
243.216080 88.054 -0.5831
244.978516 88.043 -0.5425
246.753738 88.031 -0.5001
248.541809 88.019 -0.4549
250.342850 88.006 -0.4071
252.156937 87.994 -0.3560
253.984161 87.983 -0.3031
255.824646 87.972 -0.2501
257.678467 87.962 -0.1961
259.545685 87.951 -0.1403
261.426483 87.940 -0.0841
263.320862 87.931 -0.0292
265.229004 87.922 0.0249
267.150970 87.912 0.0769
269.086853 87.901 0.1298
271.036774 87.889 0.1873
273.000824 87.878 0.2468
274.979095 87.868 0.3072
276.971710 87.859 0.3688
278.978760 87.848 0.4311
281.000336 87.837 0.4958
283.036591 87.826 0.5656
285.087585 87.816 0.6378
287.153442 87.807 0.7101
289.234283 87.797 0.7838
291.330200 87.787 0.8585
293.441284 87.776 0.9368
295.567688 87.766 1.0221
297.709503 87.756 1.1108
299.866821 87.749 1.2004
302.039795 87.742 1.2907
304.228485 87.734 1.3804
306.433044 87.727 1.4697
308.653595 87.721 1.5589
310.890228 87.716 1.6468
313.143066 87.710 1.7316
315.412231 87.704 1.8158
317.697845 87.697 1.9011
320.000000 87.691 1.9877
322.318848 87.685 2.0768
324.654510 87.680 2.1677
327.007080 87.674 2.2604
329.376709 87.668 2.3547
331.763519 87.664 2.4515
334.167603 87.660 2.5477
336.589142 87.657 2.6406
339.028198 87.655 2.7297
341.484924 87.653 2.8130
343.959473 87.650 2.8928
346.451935 87.646 2.9697
348.962463 87.642 3.0468
351.491211 87.637 3.1276
354.038239 87.631 3.2117
356.603760 87.625 3.3001
359.187866 87.619 3.3927
361.790680 87.613 3.4902
364.412354 87.608 3.5917
367.053040 87.603 3.6976
369.712860 87.599 3.8047
372.391968 87.597 3.9104
375.090454 87.596 4.0137
377.808533 87.595 4.1122
380.546265 87.593 4.2067
383.303864 87.592 4.2964
386.081451 87.590 4.3837
388.879150 87.587 4.4702
391.697144 87.582 4.5587
394.535522 87.576 4.6527
397.394501 87.570 4.7517
400.274170 87.565 4.8567
403.174744 87.559 4.9676
406.096313 87.553 5.0851
409.039062 87.547 5.2086
412.003113 87.543 5.3388
414.988647 87.539 5.4726
417.995850 87.537 5.6074
421.024811 87.535 5.7426
424.075714 87.534 5.8760
427.148743 87.534 6.0086
430.244049 87.534 6.1408
433.361786 87.534 6.2726
436.502106 87.534 6.4035
439.665161 87.534 6.5346
442.851166 87.534 6.6669
446.060242 87.534 6.8006
449.292572 87.534 6.9359
452.548340 87.534 7.0736
455.827698 87.534 7.2143
459.130798 87.534 7.3585
462.457855 87.534 7.5070
465.809021 87.535 7.6595
469.184448 87.537 7.8165
472.584381 87.539 7.9765
476.008911 87.542 8.1387
479.458252 87.547 8.3015
482.932617 87.553 8.4626
486.432159 87.559 8.6225
489.957031 87.565 8.7806
493.507477 87.572 8.9375
497.083618 87.579 9.0942
500.685699 87.586 9.2495
504.313873 87.594 9.4021
507.968323 87.603 9.5535
511.649292 87.611 9.7041
515.356934 87.618 9.8555
519.091370 87.625 10.0094
522.852966 87.632 10.1665
526.641724 87.639 10.3283
530.458008 87.647 10.4935
534.301941 87.656 10.6609
538.173706 87.665 10.8314
542.073547 87.675 11.0053
546.001648 87.685 11.1824
549.958191 87.696 11.3634
553.943420 87.708 11.5464
557.957520 87.722 11.7300
562.000671 87.737 11.9134
566.073181 87.753 12.0953
570.175171 87.770 12.2754
574.306885 87.788 12.4530
578.468567 87.807 12.6274
582.660400 87.827 12.7976
586.882568 87.847 12.9644
591.135376 87.867 13.1285
595.419006 87.888 13.2895
599.733643 87.910 13.4473
604.079590 87.932 13.6015
608.456970 87.954 13.7507
612.866089 87.977 13.8965
617.307190 87.999 14.0392
621.780457 88.022 14.1805
626.286133 88.044 14.3223
630.824463 88.066 14.4645
635.395691 88.089 14.6077
640.000000 88.112 14.7515
644.637695 88.136 14.8959
649.309021 88.160 15.0405
654.014160 88.185 15.1853
658.753418 88.210 15.3295
663.527039 88.236 15.4728
668.335205 88.264 15.6135
673.178284 88.293 15.7502
678.056396 88.322 15.8826
682.969849 88.352 16.0094
687.918945 88.382 16.1316
692.903870 88.412 16.2495
697.924927 88.442 16.3636
702.982422 88.472 16.4741
708.076477 88.503 16.5816
713.207520 88.533 16.6869
718.375732 88.563 16.7906
723.581360 88.593 16.8938
728.824707 88.624 16.9966
734.106079 88.654 17.0994
739.425720 88.685 17.2026
744.783936 88.716 17.3068
750.180908 88.748 17.4116
755.617065 88.780 17.5180
761.092529 88.814 17.6236
766.607727 88.849 17.7268
772.162903 88.886 17.8267
777.758301 88.923 17.9221
783.394287 88.961 18.0117
789.071045 89.000 18.0943
794.789001 89.041 18.1678
800.548340 89.082 18.2287
806.349487 89.123 18.2798
812.192627 89.163 18.3225
818.078125 89.202 18.3579
824.006226 89.241 18.3875
829.977295 89.280 18.4119
835.991699 89.317 18.4318
842.049622 89.354 18.4489
848.151428 89.390 18.4657
854.297485 89.426 18.4809
860.488098 89.462 18.4945
866.723572 89.499 18.5060
873.004211 89.534 18.5147
879.330322 89.569 18.5220
885.702332 89.604 18.5292
892.120483 89.639 18.5360
898.585144 89.673 18.5419
905.096680 89.706 18.5490
911.655396 89.739 18.5590
918.261597 89.771 18.5729
924.915710 89.803 18.5931
931.618042 89.836 18.6179
938.368896 89.870 18.6472
945.168762 89.905 18.6789
952.017822 89.941 18.7107
958.916504 89.979 18.7429
965.865234 90.016 18.7752
972.864319 90.055 18.8069
979.914062 90.095 18.8378
987.014954 90.137 18.8659
994.167236 90.179 18.8886
1001.371399 90.222 18.9079
1008.627747 90.265 18.9258
1015.936646 90.310 18.9399
1023.298584 90.356 18.9495
1030.713867 90.404 18.9530
1038.182739 90.452 18.9482
1045.705933 90.502 18.9361
